Freq(Hz)	RL(%)
8202625000.0	99.8006422945
8205250000.0	97.3341731333
8207875000.0	98.1888640069
8210500000.0	98.385505339
8213125000.0	98.849273845
8215750000.0	99.2825775539
8218375000.0	98.5820537995
8221000000.0	99.510709945
8223625000.0	98.2872522817
8226250000.0	99.4013560307
8228875000.0	98.8918749258
8231500000.0	97.1794746298
8234125000.0	97.6191735033
8236750000.0	98.8657814244
8239375000.0	98.5769235759
8242000000.0	97.4812736615
8244625000.0	99.3679957298
8247250000.0	98.2043749898
8249875000.0	97.8956812657
8252500000.0	98.458077433
8255125000.0	98.7535351287
8257750000.0	97.5372705963
8260375000.0	98.9204628066
8263000000.0	99.3222401181
8265625000.0	98.5832371237
8268250000.0	97.6146672625
8270875000.0	99.2875853327
8273500000.0	98.8061530149
8276125000.0	98.4012463682
8278750000.0	98.6388729474
8281375000.0	99.1094186582
8284000000.0	97.1976337077
8286625000.0	98.6771969418
8289250000.0	98.0426232642
8291875000.0	98.7550227964
8294500000.0	97.8210281783
8297125000.0	98.7991699853
8299750000.0	99.6632727837
8302375000.0	98.2078183024
8305000000.0	98.6587828749
8307625000.0	98.9166408364
8310250000.0	98.740996169
8312875000.0	99.339911571
8315500000.0	99.63744635
8318125000.0	99.3345197871
8320750000.0	98.451249296
8323375000.0	98.3475727636
8326000000.0	99.1810653642
8328625000.0	98.51274218
8331250000.0	98.5836284423
8333875000.0	98.6497396056
8336500000.0	97.8705785402
8339125000.0	97.2265398313
8341750000.0	97.2109321232
8344375000.0	97.9316565002
8347000000.0	97.3714525261
8349625000.0	99.1711580124
8352250000.0	97.2622287639
8354875000.0	98.4126279115
8357500000.0	95.839122702
8360125000.0	98.2451632987
8362750000.0	98.3195740306
8365375000.0	97.252850167
8368000000.0	96.9768690242
8370625000.0	97.8235257298
8373250000.0	97.8630282474
8375875000.0	99.3371009161
8378500000.0	98.086678813
8381125000.0	97.2627027326
8383750000.0	98.591733629
8386375000.0	98.6389718489
8389000000.0	97.5642990598
8391625000.0	96.9101732688
8394250000.0	97.2921019139
8396875000.0	97.217165966
8399500000.0	98.2473847785
8402125000.0	98.178968087
8404750000.0	97.2971617826
8407375000.0	98.3607339066
8410000000.0	98.7225109162
8412625000.0	98.4689252779
8415250000.0	97.0773284913
8417875000.0	99.1156671339
8420500000.0	98.4778808275
8423125000.0	98.3914114109
8425750000.0	98.9387965567
8428375000.0	99.3186245298
8431000000.0	98.2899421621
8433625000.0	97.7311388696
8436250000.0	98.3568977235
8438875000.0	97.8932660651
8441500000.0	98.4436828693
8444125000.0	98.2786956567
8446750000.0	98.0596491414
8449375000.0	97.9254563981
8452000000.0	98.5068070503
8454625000.0	99.7908563117
8457250000.0	97.7076207037
8459875000.0	99.3343631083
8462500000.0	99.2441826168
8465125000.0	98.5008302379
8467750000.0	98.8388301977
8470375000.0	97.9474550526
8473000000.0	98.156383475
8475625000.0	97.736270302
8478250000.0	98.2868721132
8480875000.0	98.2778844472
8483500000.0	96.9575216982
8486125000.0	96.438598596
8488750000.0	98.3702657545
8491375000.0	96.7000538604
8494000000.0	98.2590758037
8496625000.0	95.5543665438
8499250000.0	97.7829314841
8501875000.0	96.9132949495
8504500000.0	96.5321382675
8507125000.0	96.3230005282
8509750000.0	95.7002182305
8512375000.0	97.8961838316
8515000000.0	96.7956654693
8517625000.0	96.9267249969
8520250000.0	96.4484331361
8522875000.0	97.2800688827
8525500000.0	95.871950922
8528125000.0	96.9446130512
8530750000.0	97.3192930767
8533375000.0	97.5542410331
8536000000.0	98.0350221053
8538625000.0	97.4905394226
8541250000.0	97.4067653687
8543875000.0	97.1358499081
8546500000.0	95.780979074
8549125000.0	97.3935793868
8551750000.0	97.2347714445
8554375000.0	96.1894402327
8557000000.0	97.8700273299
8559625000.0	97.2955409292
8562250000.0	97.3988122007
8564875000.0	97.7457412206
8567500000.0	97.7564177881
8570125000.0	99.2161110567
8572750000.0	97.4304012247
8575375000.0	96.7693435246
8578000000.0	97.8164733583
8580625000.0	98.8119492959
8583250000.0	97.5264703529
8585875000.0	97.9686736541
8588500000.0	97.983515436
8591125000.0	96.4361421014
8593750000.0	96.9240227354
8596375000.0	97.9454613203
8599000000.0	96.0074541901
8601625000.0	98.0347893678
8604250000.0	96.2071901025
8606875000.0	96.737972138
8609500000.0	97.6186125939
8612125000.0	96.258666088
8614750000.0	96.5619101604
8617375000.0	97.7718060235
8620000000.0	96.9349011617
8622625000.0	96.319736606
8625250000.0	97.4090075957
8627875000.0	96.8485616837
8630500000.0	95.1037022612
8633125000.0	96.5748819355
8635750000.0	96.7179584859
8638375000.0	97.6809248257
8641000000.0	95.306423238
8643625000.0	96.9301834319
8646250000.0	97.5600237608
8648875000.0	94.9646308946
8651500000.0	97.1119429777
8654125000.0	97.3874015048
8656750000.0	96.1818073742
8659375000.0	97.104615497
8662000000.0	97.4027589583
8664625000.0	96.4154361071
8667250000.0	96.9147968236
8669875000.0	96.6652090135
8672500000.0	95.5062856051
8675125000.0	97.515756589
8677750000.0	96.2320346406
8680375000.0	97.5059445637
8683000000.0	96.7388910565
8685625000.0	96.9900117254
8688250000.0	97.9926590131
8690875000.0	96.1773110335
8693500000.0	96.5912067093
8696125000.0	97.9245078072
8698750000.0	96.989117643
8701375000.0	97.2510801698
8704000000.0	98.097805375
8706625000.0	96.6938845488
8709250000.0	96.6295290298
8711875000.0	98.6705293288
8714500000.0	97.2918683988
8717125000.0	96.1205036078
8719750000.0	96.5675157222
8722375000.0	97.5963003756
8725000000.0	96.3105666605
8727625000.0	95.8786983398
8730250000.0	98.241223707
8732875000.0	96.3273678571
8735500000.0	95.6554820414
8738125000.0	96.3698723372
8740750000.0	96.8397605364
8743375000.0	95.7712967478
8746000000.0	96.3751496472
8748625000.0	96.0415461751
8751250000.0	96.0327736164
8753875000.0	95.4186523336
8756500000.0	95.4677484716
8759125000.0	97.0357872169
8761750000.0	96.1271411164
8764375000.0	96.0114816048
8767000000.0	96.4302302325
8769625000.0	96.73844856
8772250000.0	97.0112027367
8774875000.0	95.9762390847
8777500000.0	94.8346802877
8780125000.0	96.5296282394
8782750000.0	94.7438308347
8785375000.0	95.149910919
8788000000.0	96.4208230847
8790625000.0	94.9019319582
8793250000.0	96.126585389
8795875000.0	96.2158032639
8798500000.0	96.9790551431
8801125000.0	95.8964969805
8803750000.0	95.0211821466
8806375000.0	97.8411749455
8809000000.0	96.3186720952
8811625000.0	97.1685525564
8814250000.0	98.2385877487
8816875000.0	96.6404814223
8819500000.0	95.911092495
8822125000.0	96.4960269734
8824750000.0	95.9635223537
8827375000.0	96.1869794822
8830000000.0	97.0659647688
8832625000.0	96.1713989862
8835250000.0	96.3219550596
8837875000.0	97.2953601366
8840500000.0	95.9699015944
8843125000.0	96.8273348088
8845750000.0	97.2355191271
8848375000.0	95.4263192187
8851000000.0	96.6828472113
8853625000.0	96.6409714827
8856250000.0	94.6285279281
8858875000.0	97.2370877863
8861500000.0	94.7428665966
8864125000.0	95.0926743145
8866750000.0	97.0924327019
8869375000.0	96.1865587162
8872000000.0	94.5933250536
8874625000.0	96.0945329615
8877250000.0	94.9352551417
8879875000.0	95.9548431444
8882500000.0	95.950684787
8885125000.0	96.9325869561
8887750000.0	94.3992388531
8890375000.0	96.4281954092
8893000000.0	95.8740821324
8895625000.0	94.4843321365
8898250000.0	94.6132975677
8900875000.0	94.5327354212
8903500000.0	94.927302849
8906125000.0	95.9148692391
8908750000.0	95.4087869918
8911375000.0	95.9434573451
8914000000.0	94.609832111
8916625000.0	95.4954626804
8919250000.0	95.2431644799
8921875000.0	95.4142635118
8924500000.0	94.9582738673
8927125000.0	94.9839556986
8929750000.0	97.206673262
8932375000.0	96.3840423694
8935000000.0	94.8268872074
8937625000.0	95.7374043446
8940250000.0	95.6211838268
8942875000.0	95.5491217681
8945500000.0	95.1641461787
8948125000.0	95.4630677564
8950750000.0	95.914396272
8953375000.0	96.1084904745
8956000000.0	95.8937106149
8958625000.0	94.431241656
8961250000.0	95.5846199408
8963875000.0	96.6127054104
8966500000.0	94.9943385344
8969125000.0	96.1364172527
8971750000.0	96.4148489782
8974375000.0	96.0053446384
8977000000.0	96.0478055397
8979625000.0	96.1757227861
8982250000.0	96.425981869
8984875000.0	93.6070465558
8987500000.0	95.1024456304
8990125000.0	93.9382756169
8992750000.0	93.9843606288
8995375000.0	95.4028844902
8998000000.0	94.4500853788
9000625000.0	93.7177751524
9003250000.0	96.0830957103
9005875000.0	94.3841080958
9008500000.0	94.8625389233
9011125000.0	95.4547066236
9013750000.0	93.4329436705
9016375000.0	94.4240268871
9019000000.0	94.2784471528
9021625000.0	94.0085389581
9024250000.0	94.6941327482
9026875000.0	95.2468834763
9029500000.0	94.1299457981
9032125000.0	93.4539115369
9034750000.0	94.270013047
9037375000.0	95.4920125795
9040000000.0	94.0234553185
9042625000.0	94.9109373946
9045250000.0	93.2710587209
9047875000.0	95.1541049382
9050500000.0	95.6035943589
9053125000.0	94.4435676724
9055750000.0	95.1385568785
9058375000.0	93.6809290991
9061000000.0	95.6487058312
9063625000.0	95.0527614231
9066250000.0	94.2474664163
9068875000.0	95.3343541444
9071500000.0	93.7612267745
9074125000.0	96.8293781737
9076750000.0	95.0230917122
9079375000.0	95.4244979475
9082000000.0	95.032451882
9084625000.0	94.4119364925
9087250000.0	95.6356603838
9089875000.0	94.4556654669
9092500000.0	95.7740885003
9095125000.0	95.7738042668
9097750000.0	94.27789483
9100375000.0	95.3459557008
9103000000.0	94.3139678697
9105625000.0	95.9672412591
9108250000.0	95.0298677511
9110875000.0	95.8043452802
9113500000.0	94.6247828717
9116125000.0	96.5429046458
9118750000.0	95.4036498194
9121375000.0	95.3062473178
9124000000.0	94.6302800155
9126625000.0	95.2708943118
9129250000.0	95.3494659142
9131875000.0	95.4425282324
9134500000.0	94.4946796137
9137125000.0	93.8869981623
9139750000.0	94.3784080869
9142375000.0	95.2514653656
9145000000.0	94.1060677201
9147625000.0	93.5193488971
9150250000.0	94.2874812488
9152875000.0	93.9662393284
9155500000.0	94.2446208077
9158125000.0	94.072786753
9160750000.0	94.8191691733
9163375000.0	94.6859168248
9166000000.0	94.7477478139
9168625000.0	95.352719247
9171250000.0	93.978099053
9173875000.0	95.9356067473
9176500000.0	95.4591872597
9179125000.0	95.2373184846
9181750000.0	95.4858030307
9184375000.0	95.3212207885
9187000000.0	95.2961704039
9189625000.0	94.3412942515
9192250000.0	93.8099203521
9194875000.0	94.1696535501
9197500000.0	94.238996207
9200125000.0	95.4076632443
9202750000.0	95.2277595126
9205375000.0	95.1947885037
9208000000.0	94.2901487103
9210625000.0	94.6490282031
9213250000.0	94.5399749635
9215875000.0	94.5744753192
9218500000.0	94.7869577363
9221125000.0	93.985766744
9223750000.0	94.2234163958
9226375000.0	94.5139951999
9229000000.0	95.2307218929
9231625000.0	93.927152267
9234250000.0	93.8334834356
9236875000.0	95.0612288289
9239500000.0	94.133948784
9242125000.0	92.3171415599
9244750000.0	94.650572162
9247375000.0	94.3462076116
9250000000.0	94.8151646952
9252625000.0	94.9786776835
9255250000.0	93.8518210255
9257875000.0	93.6683582526
9260500000.0	94.1822810766
9263125000.0	94.6979643283
9265750000.0	93.4331796709
9268375000.0	93.9734220119
9271000000.0	94.5666030328
9273625000.0	94.3429120308
9276250000.0	94.7504894338
9278875000.0	95.6205299958
9281500000.0	94.0227227611
9284125000.0	94.6431538286
9286750000.0	92.8173839361
9289375000.0	94.7094401927
9292000000.0	93.6571356675
9294625000.0	93.3994885488
9297250000.0	92.4903960818
9299875000.0	94.0446130011
9302500000.0	93.5569135572
9305125000.0	93.7044403089
9307750000.0	94.7061649815
9310375000.0	94.216770333
9313000000.0	93.2898732717
9315625000.0	93.55127287
9318250000.0	94.3182372695
9320875000.0	94.4200135287
9323500000.0	93.2079391531
9326125000.0	94.1273455815
9328750000.0	93.1567749055
9331375000.0	94.1008721232
9334000000.0	93.6059251483
9336625000.0	94.7454057307
9339250000.0	93.8283102215
9341875000.0	93.3054574351
9344500000.0	94.5793900211
9347125000.0	93.3539781518
9349750000.0	94.097532411
9352375000.0	94.0142016669
9355000000.0	94.3409554775
9357625000.0	94.5637525449
9360250000.0	93.6058194393
9362875000.0	93.9953662489
9365500000.0	94.7676819126
9368125000.0	95.4232816048
9370750000.0	94.4664707128
9373375000.0	94.0035805138
9376000000.0	93.9430843979
9378625000.0	93.8242536756
9381250000.0	95.0466260183
9383875000.0	94.5774277256
9386500000.0	93.6597847804
9389125000.0	94.1773343306
9391750000.0	93.995602385
9394375000.0	94.0740679049
9397000000.0	93.631420001
9399625000.0	93.5202029691
9402250000.0	94.1517868228
9404875000.0	94.2318488734
9407500000.0	92.7061692254
9410125000.0	92.8528170321
9412750000.0	93.5404635849
9415375000.0	93.2171832258
9418000000.0	92.2789074278
9420625000.0	93.2576501703
9423250000.0	93.2219072939
9425875000.0	92.6098383185
9428500000.0	94.6365340985
9431125000.0	93.508022588
9433750000.0	93.0152382121
9436375000.0	93.2468345956
9439000000.0	92.4328019179
9441625000.0	93.6580461536
9444250000.0	93.2072874247
9446875000.0	93.7954713826
9449500000.0	93.4464199457
9452125000.0	92.6735860817
9454750000.0	92.6225815155
9457375000.0	93.9163209542
9460000000.0	93.6385178836
9462625000.0	94.520614799
9465250000.0	93.2615664231
9467875000.0	92.9513273419
9470500000.0	93.2581960498
9473125000.0	93.4469033833
9475750000.0	92.9031665858
9478375000.0	94.0602857933
9481000000.0	94.4221932045
9483625000.0	93.6912901047
9486250000.0	93.5511944424
9488875000.0	94.7682278797
9491500000.0	95.0203238115
9494125000.0	94.3173034763
9496750000.0	94.7595591788
9499375000.0	94.1867798416
9502000000.0	94.0866375386
9504625000.0	93.7933062188
9507250000.0	94.6156030261
9509875000.0	94.9662849219
9512500000.0	94.416088824
9515125000.0	94.4474950196
9517750000.0	93.9707338957
9520375000.0	93.8367853129
9523000000.0	93.2521204694
9525625000.0	93.6529293321
9528250000.0	94.152816273
9530875000.0	94.0241885877
9533500000.0	94.2522320276
9536125000.0	92.9312546126
9538750000.0	94.7821085632
9541375000.0	93.3339128926
9544000000.0	95.5765435699
9546625000.0	95.8923812157
9549250000.0	94.0019499097
9551875000.0	93.876529451
9554500000.0	93.9311067638
9557125000.0	91.9038681837
9559750000.0	92.2466511171
9562375000.0	93.8118060138
9565000000.0	93.8592351393
9567625000.0	91.8716682387
9570250000.0	92.8133497884
9572875000.0	93.2579642325
9575500000.0	92.6013434513
9578125000.0	92.6766042353
9580750000.0	91.0938627353
9583375000.0	91.9789098036
9586000000.0	91.7780107494
9588625000.0	92.596060525
9591250000.0	91.3953620788
9593875000.0	91.1122663261
9596500000.0	91.2341455754
9599125000.0	92.6766004249
9601750000.0	91.7774111142
9604375000.0	91.4256981867
9607000000.0	91.3913353119
9609625000.0	92.1759354221
9612250000.0	92.6584374091
9614875000.0	92.0311630328
9617500000.0	91.6520520424
9620125000.0	90.2694009402
9622750000.0	92.3128319804
9625375000.0	92.5376727361
9628000000.0	93.0810015512
9630625000.0	91.7531260563
9633250000.0	92.1906034054
9635875000.0	92.5320975296
9638500000.0	92.2594390482
9641125000.0	91.6286902337
9643750000.0	92.5486643737
9646375000.0	91.7430276253
9649000000.0	92.3304157077
9651625000.0	90.9106980765
9654250000.0	93.0173379491
9656875000.0	92.7466171189
9659500000.0	91.5030039879
9662125000.0	91.1729458449
9664750000.0	91.6895830418
9667375000.0	91.8893781579
9670000000.0	92.9726516361
9672625000.0	93.493092299
9675250000.0	91.7973866588
9677875000.0	91.3365701563
9680500000.0	90.0400611991
9683125000.0	92.1824903262
9685750000.0	91.3462171104
9688375000.0	91.406817756
9691000000.0	90.2195241458
9693625000.0	91.1519103773
9696250000.0	91.7772187498
9698875000.0	91.4274517553
9701500000.0	91.2502086184
9704125000.0	91.3905463351
9706750000.0	91.4891727792
9709375000.0	90.40251717
9712000000.0	91.7516456039
9714625000.0	90.5047582078
9717250000.0	92.0396316928
9719875000.0	91.9296968792
9722500000.0	91.7360503254
9725125000.0	92.676442323
9727750000.0	92.4651877055
9730375000.0	91.4944273645
9733000000.0	91.5702745192
9735625000.0	90.8017039636
9738250000.0	91.2149294193
9740875000.0	92.0960467057
9743500000.0	89.5512919242
9746125000.0	91.780085835
9748750000.0	91.181665185
9751375000.0	91.9557675858
9754000000.0	90.6336221715
9756625000.0	90.5925825675
9759250000.0	89.5459813516
9761875000.0	90.6918066704
9764500000.0	89.7784352812
9767125000.0	90.2731005555
9769750000.0	91.0977135425
9772375000.0	90.7174095998
9775000000.0	91.187829945
9777625000.0	91.564722556
9780250000.0	91.69227261
9782875000.0	90.6109746943
9785500000.0	91.8425662596
9788125000.0	91.3410217543
9790750000.0	91.437003467
9793375000.0	91.7311229849
9796000000.0	91.7694444795
9798625000.0	90.9914257311
9801250000.0	91.4895682403
9803875000.0	90.8921462692
9806500000.0	90.05388414
9809125000.0	91.536299643
9811750000.0	91.6652802812
9814375000.0	91.1206763364
9817000000.0	91.3549414469
9819625000.0	90.5807388847
9822250000.0	91.0765469645
9824875000.0	91.0136649369
9827500000.0	90.9653364277
9830125000.0	89.9229572159
9832750000.0	90.8936106255
9835375000.0	90.3748229698
9838000000.0	91.5557284895
9840625000.0	91.2261444439
9843250000.0	90.6075351392
9845875000.0	89.7614461254
9848500000.0	91.2290436522
9851125000.0	89.6967856982
9853750000.0	89.5917372738
9856375000.0	90.5269818868
9859000000.0	90.2788810016
9861625000.0	90.1425831534
9864250000.0	90.0829423154
9866875000.0	90.3117555504
9869500000.0	89.8822164776
9872125000.0	90.0924527231
9874750000.0	89.540848406
9877375000.0	89.8347155822
9880000000.0	90.3778866245
9882625000.0	90.973613702
9885250000.0	90.5673270628
9887875000.0	89.961072613
9890500000.0	90.5083398944
9893125000.0	90.1802338854
9895750000.0	89.7070262991
9898375000.0	89.924987063
9901000000.0	90.1100763381
9903625000.0	90.0052081941
9906250000.0	89.7805351331
9908875000.0	90.0048577493
9911500000.0	90.9640281081
9914125000.0	90.8548715997
9916750000.0	90.8050601109
9919375000.0	90.8777521757
9922000000.0	89.7349812611
9924625000.0	90.1654824186
9927250000.0	91.0488677908
9929875000.0	90.1506430343
9932500000.0	89.5739475237
9935125000.0	90.205426861
9937750000.0	90.4165140612
9940375000.0	90.3322092086
9943000000.0	89.8933311414
9945625000.0	90.1867586341
9948250000.0	89.7588302859
9950875000.0	90.8149166092
9953500000.0	90.1169869143
9956125000.0	89.8491086444
9958750000.0	90.2336231171
9961375000.0	90.0712693726
9964000000.0	90.3763067993
9966625000.0	90.4027567954
9969250000.0	89.7995773454
9971875000.0	90.5779891265
9974500000.0	90.2898929835
9977125000.0	90.854105199
9979750000.0	89.5434514596
9982375000.0	89.9095854575
9985000000.0	90.0459362672
9987625000.0	89.5521824851
9990250000.0	89.946147997
9992875000.0	90.3522923456
9995500000.0	89.4299733924
9998125000.0	89.7576926022
10000750000.0	88.297548876
10003375000.0	90.2884031086
10006000000.0	89.6910802941
10008625000.0	89.4348158166
10011250000.0	89.6702290707
10013875000.0	90.2127794479
10016500000.0	90.4102517448
10019125000.0	89.881944161
10021750000.0	89.9900726911
10024375000.0	90.1609592944
10027000000.0	90.9996316442
10029625000.0	89.5865104596
10032250000.0	90.3979093207
10034875000.0	90.89541993
10037500000.0	90.5006220534
10040125000.0	89.8295173834
10042750000.0	90.9703370729
10045375000.0	90.8654740889
10048000000.0	89.2538576175
10050625000.0	90.0433099658
10053250000.0	90.6982488134
10055875000.0	90.6693546461
10058500000.0	89.5660671569
10061125000.0	90.5296759313
10063750000.0	90.39330049
10066375000.0	90.5023830406
10069000000.0	89.8888524757
10071625000.0	89.8054550193
10074250000.0	90.1574297657
10076875000.0	90.109882723
10079500000.0	89.7024210214
10082125000.0	90.657660702
10084750000.0	89.867994439
10087375000.0	90.5721056265
10090000000.0	89.0870145135
10092625000.0	90.8913010779
10095250000.0	89.9775449138
10097875000.0	88.8595506193
10100500000.0	90.3827337736
10103125000.0	89.0424158044
10105750000.0	88.8825993558
10108375000.0	89.490733841
10111000000.0	89.6918954617
10113625000.0	89.297983222
10116250000.0	89.3309186871
10118875000.0	88.8260893553
10121500000.0	88.5261767633
10124125000.0	89.0554186475
10126750000.0	89.9822379372
10129375000.0	88.6788461127
10132000000.0	89.0340802553
10134625000.0	90.2122690994
10137250000.0	89.1550393889
10139875000.0	89.2583074655
10142500000.0	89.5357720553
10145125000.0	90.4424626273
10147750000.0	89.3068118956
10150375000.0	88.9525219314
10153000000.0	88.8327299979
10155625000.0	89.5118748266
10158250000.0	89.3735883858
10160875000.0	89.0568398027
10163500000.0	89.5968300519
10166125000.0	89.5113675009
10168750000.0	89.3437968539
10171375000.0	89.1878385107
10174000000.0	90.1123773595
10176625000.0	89.1319234442
10179250000.0	89.7490254416
10181875000.0	88.487550088
10184500000.0	90.4501934854
10187125000.0	89.386415833
10189750000.0	89.6795788467
10192375000.0	90.4414376996
10195000000.0	89.9966248244
10197625000.0	88.6165860633
10200250000.0	89.4020286839
10202875000.0	90.4760488541
10205500000.0	89.1546738395
10208125000.0	89.3180882667
10210750000.0	89.4266743151
10213375000.0	88.6194502322
10216000000.0	89.6135704722
10218625000.0	90.2684536961
10221250000.0	89.5980177027
10223875000.0	90.2214430928
10226500000.0	89.0999774663
10229125000.0	90.0711937924
10231750000.0	89.7594165575
10234375000.0	89.1606939216
10237000000.0	89.9803929562
10239625000.0	90.255878075
10242250000.0	89.0177272859
10244875000.0	89.2084300835
10247500000.0	89.6909298423
10250125000.0	89.2178842923
10252750000.0	88.879445974
10255375000.0	88.4822141616
10258000000.0	89.0486533439
10260625000.0	89.1012605177
10263250000.0	88.6653325667
10265875000.0	89.2342791857
10268500000.0	90.4120086034
10271125000.0	88.5944771762
10273750000.0	88.8410302635
10276375000.0	88.1942511831
10279000000.0	88.3498026853
10281625000.0	89.4354248171
10284250000.0	88.3783707029
10286875000.0	89.6977449802
10289500000.0	88.4152875908
10292125000.0	88.2746668635
10294750000.0	87.9172923361
10297375000.0	87.7464965662
10300000000.0	89.1052853642
10302625000.0	88.094975887
10305250000.0	89.2914405806
10307875000.0	89.6630310566
10310500000.0	88.8499317027
10313125000.0	88.9988311157
10315750000.0	88.7945355648
10318375000.0	89.4069160635
10321000000.0	89.4323601411
10323625000.0	89.118093664
10326250000.0	88.6082538593
10328875000.0	89.5395235969
10331500000.0	88.94640027
10334125000.0	89.8934576582
10336750000.0	88.9132070898
10339375000.0	89.4313425757
10342000000.0	89.529111001
10344625000.0	90.1039369467
10347250000.0	88.7950795111
10349875000.0	89.6451952184
10352500000.0	89.4593068767
10355125000.0	90.4549636241
10357750000.0	88.6654006803
10360375000.0	90.1689240736
10363000000.0	89.793466497
10365625000.0	89.3054276562
10368250000.0	90.9803661278
10370875000.0	88.8914795725
10373500000.0	88.1235676646
10376125000.0	87.6680565389
10378750000.0	87.8519873724
10381375000.0	88.8194870865
10384000000.0	87.6278876917
10386625000.0	88.7236192362
10389250000.0	89.4408931108
10391875000.0	88.7622748102
10394500000.0	89.1127700648
10397125000.0	87.5815748526
10399750000.0	88.8659949543
10402375000.0	88.0904677982
10405000000.0	89.1065504179
10407625000.0	88.5277285679
10410250000.0	88.8835438891
10412875000.0	88.9906404647
10415500000.0	88.1044162003
10418125000.0	88.9561493604
10420750000.0	88.9750407141
10423375000.0	88.3831102482
10426000000.0	88.5310671684
10428625000.0	87.6079426342
10431250000.0	88.4347560613
10433875000.0	89.7358912719
10436500000.0	87.6035530653
10439125000.0	87.8932277877
10441750000.0	88.8109312994
10444375000.0	87.399504073
10447000000.0	89.242744813
10449625000.0	88.6196300652
10452250000.0	89.2647891508
10454875000.0	88.1964201889
10457500000.0	89.4390183186
10460125000.0	88.4359559689
10462750000.0	89.4354317426
10465375000.0	87.8087609794
10468000000.0	88.3919701815
10470625000.0	88.2665781893
10473250000.0	87.7917508942
10475875000.0	89.2032354207
10478500000.0	88.6031327808
10481125000.0	89.3166448086
10483750000.0	87.9015845625
10486375000.0	88.9093270082
10489000000.0	87.5397591624
10491625000.0	87.0259303032
10494250000.0	88.7121538194
10496875000.0	88.4748680185
10499500000.0	87.3857013692
10502125000.0	88.9611224
10504750000.0	86.9407760608
10507375000.0	86.9141874828
10510000000.0	87.4620010865
10512625000.0	88.85582445
10515250000.0	86.9074677963
10517875000.0	87.4567832921
10520500000.0	87.6628918078
10523125000.0	87.8397855953
10525750000.0	87.3939412861
10528375000.0	87.7752908734
10531000000.0	89.1627314917
10533625000.0	89.4238596855
10536250000.0	87.2602563443
10538875000.0	87.1494731785
10541500000.0	88.6575886413
10544125000.0	86.6756416041
10546750000.0	86.9270341964
10549375000.0	87.4260817201
10552000000.0	86.0425771571
10554625000.0	88.7329765544
10557250000.0	88.2840204371
10559875000.0	87.8621276736
10562500000.0	86.9272465065
10565125000.0	88.2738437173
10567750000.0	88.2031216647
10570375000.0	86.5776672719
10573000000.0	86.4378467819
10575625000.0	88.8783599222
10578250000.0	87.9608924217
10580875000.0	87.3815946126
10583500000.0	89.323400396
10586125000.0	87.1897407674
10588750000.0	86.8056534749
10591375000.0	89.2640356512
10594000000.0	89.3487109234
10596625000.0	89.1599922203
10599250000.0	86.1436283528
10601875000.0	87.4748524698
10604500000.0	87.1173601198
10607125000.0	88.2355723684
10609750000.0	88.4294998153
10612375000.0	86.9020736332
10615000000.0	84.5847407469
10617625000.0	87.294404215
10620250000.0	87.7689963176
10622875000.0	86.2815298565
10625500000.0	87.4210736132
10628125000.0	85.6169941371
10630750000.0	85.7865580376
10633375000.0	86.0610272756
10636000000.0	86.6345958974
10638625000.0	87.4531753946
10641250000.0	86.4723519974
10643875000.0	86.5367154264
10646500000.0	88.2647455709
10649125000.0	85.814911639
10651750000.0	87.1432883385
10654375000.0	86.0634464506
10657000000.0	87.3298829401
10659625000.0	88.5011152624
10662250000.0	87.4238719564
10664875000.0	87.162286744
10667500000.0	85.4211823754
10670125000.0	83.7546152092
10672750000.0	87.0996634767
10675375000.0	86.7846763286
10678000000.0	87.0106908101
10680625000.0	85.7780316463
10683250000.0	87.6567044301
10685875000.0	84.5306677648
10688500000.0	86.4847201546
10691125000.0	86.3220568002
10693750000.0	86.3472373282
10696375000.0	85.3245421039
10699000000.0	86.5001159476
10701625000.0	85.8340906748
10704250000.0	85.425394242
10706875000.0	87.0478590317
10709500000.0	85.4153003555
10712125000.0	84.7104328678
10714750000.0	86.5080177406
10717375000.0	84.8037892452
10720000000.0	85.8278684997
10722625000.0	87.4448947836
10725250000.0	86.0427114848
10727875000.0	85.8879370684
10730500000.0	87.465848107
10733125000.0	85.3737598047
10735750000.0	85.874802553
10738375000.0	86.4475917732
10741000000.0	85.8282039342
10743625000.0	85.2709605189
10746250000.0	85.2176507108
10748875000.0	88.0509515024
10751500000.0	86.0698132964
10754125000.0	85.3138069395
10756750000.0	85.5218059323
10759375000.0	85.7586903932
10762000000.0	85.686122796
10764625000.0	83.7820550938
10767250000.0	86.7726859893
10769875000.0	86.5164565377
10772500000.0	84.8405467077
10775125000.0	85.9435009023
10777750000.0	84.9725510839
10780375000.0	84.9302176266
10783000000.0	86.1733946696
10785625000.0	85.0158200798
10788250000.0	85.8928344705
10790875000.0	84.113372047
10793500000.0	85.3464043591
10796125000.0	83.9958439715
10798750000.0	85.1285232431
10801375000.0	84.0660919057
10804000000.0	86.6961938201
10806625000.0	84.6873579825
10809250000.0	83.7908979656
10811875000.0	83.7615239235
10814500000.0	85.4165153187
10817125000.0	83.7489534448
10819750000.0	85.9656090115
10822375000.0	85.1288982437
10825000000.0	85.3588440201
10827625000.0	85.8303878123
10830250000.0	83.8939864194
10832875000.0	85.6451730944
10835500000.0	85.4187075203
10838125000.0	86.2692506327
10840750000.0	84.3256909207
10843375000.0	87.496942143
10846000000.0	84.8223233864
10848625000.0	86.0343204044
10851250000.0	84.2352872263
10853875000.0	83.876480943
10856500000.0	84.0375454482
10859125000.0	84.4979647079
10861750000.0	85.380003932
10864375000.0	85.0047506183
10867000000.0	83.8577809167
10869625000.0	84.9819741233
10872250000.0	83.9335094662
10874875000.0	83.4489804472
10877500000.0	83.8220402017
10880125000.0	85.1853076343
10882750000.0	84.6590663617
10885375000.0	84.6701938965
10888000000.0	83.7595570117
10890625000.0	84.5241610991
10893250000.0	84.3234898795
10895875000.0	82.4566987063
10898500000.0	82.7116792703
10901125000.0	85.2933694112
10903750000.0	84.6571595371
10906375000.0	82.5665718283
10909000000.0	85.2302171466
10911625000.0	83.2451158171
10914250000.0	83.7665390236
10916875000.0	84.2077518827
10919500000.0	82.8735792883
10922125000.0	84.708136803
10924750000.0	84.049866101
10927375000.0	83.6071304697
10930000000.0	82.7680396713
10932625000.0	84.7951400773
10935250000.0	82.4065173956
10937875000.0	83.9359851737
10940500000.0	85.3220219586
10943125000.0	82.8840416325
10945750000.0	83.8689355353
10948375000.0	83.8168361048
10951000000.0	84.8646842897
10953625000.0	84.2076481455
10956250000.0	82.8385910914
10958875000.0	83.7670096082
10961500000.0	84.4730766018
10964125000.0	83.6622765605
10966750000.0	82.5915999412
10969375000.0	82.726130996
10972000000.0	83.95663439
10974625000.0	83.0600671919
10977250000.0	82.2321945428
10979875000.0	85.3943372884
10982500000.0	82.6151975141
10985125000.0	82.9703528216
10987750000.0	83.3553315385
10990375000.0	83.6814829997
10993000000.0	83.2349585802
10995625000.0	81.4895655025
10998250000.0	83.1643070116
11000875000.0	83.786247693
11003500000.0	84.9835082327
11006125000.0	83.759486449
11008750000.0	84.49374354
11011375000.0	84.6306388724
11014000000.0	82.7728109555
11016625000.0	85.1523966786
11019250000.0	83.6325030443
11021875000.0	83.6451940452
11024500000.0	84.2794688673
11027125000.0	81.7655563603
11029750000.0	83.5015796816
11032375000.0	82.4148102529
11035000000.0	83.547652336
11037625000.0	84.1811791737
11040250000.0	85.8166470847
11042875000.0	82.9780240099
11045500000.0	83.9473503259
11048125000.0	84.5082332313
11050750000.0	81.8050666121
11053375000.0	83.641174427
11056000000.0	83.3648768661
11058625000.0	83.1329783917
11061250000.0	82.4661125612
11063875000.0	83.3675516391
11066500000.0	82.5978300125
11069125000.0	81.6808685989
11071750000.0	81.5246526598
11074375000.0	83.2771874092
11077000000.0	83.8059862287
11079625000.0	80.1494469928
11082250000.0	83.9138392846
11084875000.0	84.9834045687
11087500000.0	84.1944678709
11090125000.0	83.1093918093
11092750000.0	81.6803903923
11095375000.0	81.6930062345
11098000000.0	81.1717509295
11100625000.0	84.6059105366
11103250000.0	82.2775310089
11105875000.0	80.0984212848
11108500000.0	82.3734174924
11111125000.0	84.1234006434
11113750000.0	80.7336442864
11116375000.0	81.5646201806
11119000000.0	80.5894418391
11121625000.0	81.4636751937
11124250000.0	83.0341923491
11126875000.0	81.2457596268
11129500000.0	80.2826508751
11132125000.0	82.3662163011
11134750000.0	80.9529971465
11137375000.0	79.8929753841
11140000000.0	81.3373135374
11142625000.0	81.7607518128
11145250000.0	78.9090948074
11147875000.0	81.675956312
11150500000.0	80.1631340607
11153125000.0	82.9489082048
11155750000.0	82.9464035848
11158375000.0	83.4381017836
11161000000.0	82.7179287029
11163625000.0	83.3385684388
11166250000.0	80.5884584059
11168875000.0	83.8965957211
11171500000.0	82.2773539471
11174125000.0	82.4228241123
11176750000.0	82.0517433241
11179375000.0	81.7099225117
11182000000.0	80.8382858263
11184625000.0	81.9753322773
11187250000.0	82.4556553722
11189875000.0	82.853763561
11192500000.0	81.6900595005
11195125000.0	80.3126441032
11197750000.0	79.9299842884
11200375000.0	81.2753812126
11203000000.0	80.8298963488
11205625000.0	80.6564022549
11208250000.0	83.1984287386
11210875000.0	79.3729908835
11213500000.0	82.6497614189
11216125000.0	81.4097740841
11218750000.0	80.9330558319
11221375000.0	80.8635192262
11224000000.0	79.7146657593
11226625000.0	81.0003219171
11229250000.0	79.0760971595
11231875000.0	80.1773696506
11234500000.0	79.3831071364
11237125000.0	80.5472514441
11239750000.0	80.3282158063
11242375000.0	79.5147044384
11245000000.0	81.0790493499
11247625000.0	80.9366460871
11250250000.0	80.067132241
11252875000.0	81.4130477037
11255500000.0	81.155794303
11258125000.0	80.1829066192
11260750000.0	80.8836680984
11263375000.0	79.5223783319
11266000000.0	78.021619097
11268625000.0	81.7650747622
11271250000.0	80.2960786591
11273875000.0	79.2990730847
11276500000.0	82.1932733921
11279125000.0	77.1815324674
11281750000.0	79.3161927082
11284375000.0	79.7869157363
11287000000.0	78.7188439036
11289625000.0	79.8157419658
11292250000.0	78.5685884637
11294875000.0	77.7856155852
11297500000.0	80.8530148669
11300125000.0	78.4162562458
11302750000.0	79.1664963338
11305375000.0	81.5904315519
11308000000.0	78.2814730811
11310625000.0	79.8927475083
11313250000.0	79.8687831374
11315875000.0	78.4692568017
11318500000.0	78.8789942137
11321125000.0	79.827312401
11323750000.0	79.7245633383
11326375000.0	81.3316835075
11329000000.0	78.4356650121
11331625000.0	79.6558528918
11334250000.0	78.1489118766
11336875000.0	79.986973496
11339500000.0	79.7129106648
11342125000.0	81.4544077379
11344750000.0	78.4475521835
11347375000.0	78.4319067861
11350000000.0	76.3796529213
11352625000.0	78.7200877681
11355250000.0	78.4569061001
11357875000.0	78.6754186975
11360500000.0	76.2874927381
11363125000.0	79.9617593772
11365750000.0	77.6086573569
11368375000.0	77.2806988213
11371000000.0	77.8738833094
11373625000.0	76.9422935225
11376250000.0	77.9014836265
11378875000.0	79.0802350911
11381500000.0	78.476528521
11384125000.0	78.3946053139
11386750000.0	78.1998675449
11389375000.0	77.6916069064
11392000000.0	78.8074028659
11394625000.0	77.8505697568
11397250000.0	79.2023480296
11399875000.0	79.4605757928
11402500000.0	75.0126627266
11405125000.0	76.9105308371
11407750000.0	78.1982857963
11410375000.0	76.8544090632
11413000000.0	77.2942128389
11415625000.0	76.1870310639
11418250000.0	77.1738682175
11420875000.0	75.7879883594
11423500000.0	75.6893719078
11426125000.0	75.3484376803
11428750000.0	75.5065094491
11431375000.0	75.866630529
11434000000.0	76.307521914
11436625000.0	75.9720196476
11439250000.0	74.7077770013
11441875000.0	74.1397117734
11444500000.0	74.4728287082
11447125000.0	76.2204767946
11449750000.0	74.8926972039
11452375000.0	74.9598946119
11455000000.0	76.5768986777
11457625000.0	75.7744355443
11460250000.0	75.6026937015
11462875000.0	74.567644866
11465500000.0	76.3604149753
11468125000.0	75.2478402349
11470750000.0	75.3279881424
11473375000.0	73.7996412543
11476000000.0	73.2276240698
11478625000.0	73.7840624242
11481250000.0	75.9868713184
11483875000.0	75.4578253133
11486500000.0	73.8567340775
11489125000.0	71.4463769058
11491750000.0	73.535378944
11494375000.0	74.9772407225
11497000000.0	73.1361580029
11499625000.0	74.5783685693
11502250000.0	73.1703044904
11504875000.0	72.2935828962
11507500000.0	75.6756134243
11510125000.0	76.7762558241
11512750000.0	74.2714427539
11515375000.0	72.9924561426
11518000000.0	72.7609211317
11520625000.0	73.5274144774
11523250000.0	73.0834978289
11525875000.0	73.8078641327
11528500000.0	73.5006855292
11531125000.0	75.5495205174
11533750000.0	71.8956330836
11536375000.0	73.5574811618
11539000000.0	73.4518512717
11541625000.0	73.3966715974
11544250000.0	73.7680422537
11546875000.0	73.0825500451
11549500000.0	74.9615672789
11552125000.0	74.1225361989
11554750000.0	72.9571015493
11557375000.0	73.6155960196
11560000000.0	72.879566796
11562625000.0	73.4275415526
11565250000.0	74.5878933499
11567875000.0	72.0962132333
11570500000.0	73.9987266844
11573125000.0	75.2246103406
11575750000.0	72.9410905939
11578375000.0	72.4546514707
11581000000.0	72.9032759303
11583625000.0	73.9307913976
11586250000.0	73.0738780079
11588875000.0	75.9658649173
11591500000.0	74.0452317252
11594125000.0	72.2246324459
11596750000.0	71.9975436164
11599375000.0	74.9707688282
11602000000.0	72.875161503
11604625000.0	73.583633301
11607250000.0	71.4774966736
11609875000.0	72.5062699763
11612500000.0	72.9657486506
11615125000.0	73.7102265278
11617750000.0	74.6428463583
11620375000.0	71.9789930546
11623000000.0	73.6667490486
11625625000.0	74.5151876365
11628250000.0	71.6640679858
11630875000.0	72.6796326706
11633500000.0	71.7677725304
11636125000.0	73.3806870776
11638750000.0	73.6068890682
11641375000.0	72.7082196285
11644000000.0	73.8405665232
11646625000.0	73.5669896391
11649250000.0	72.839735886
11651875000.0	74.2658237574
11654500000.0	73.6516720534
11657125000.0	73.097225278
11659750000.0	71.8467066963
11662375000.0	74.1452616261
11665000000.0	72.5522881361
11667625000.0	74.0077210861
11670250000.0	74.3900130109
11672875000.0	73.2405763235
11675500000.0	70.7021851105
11678125000.0	73.854419133
11680750000.0	73.7907627813
11683375000.0	74.2313903406
11686000000.0	72.8209311562
11688625000.0	72.7204535433
11691250000.0	74.4609873669
11693875000.0	73.4632437511
11696500000.0	75.1126127538
11699125000.0	71.1020066732
11701750000.0	73.1236005043
11704375000.0	74.3574539252
11707000000.0	75.5901994177
11709625000.0	73.8708135051
11712250000.0	73.7789588359
11714875000.0	74.3809565292
11717500000.0	74.2043322614
11720125000.0	73.5782635358
11722750000.0	73.8021303112
11725375000.0	71.3130292776
11728000000.0	72.5971687561
11730625000.0	70.998740777
11733250000.0	72.4545378825
11735875000.0	72.5918390504
11738500000.0	73.0517062707
11741125000.0	71.1631719988
11743750000.0	75.2335886467
11746375000.0	73.7825550353
11749000000.0	74.2204318494
11751625000.0	72.1724357398
11754250000.0	71.9960191605
11756875000.0	72.3380880245
11759500000.0	72.6061451194
11762125000.0	71.3985968501
11764750000.0	70.6732960661
11767375000.0	70.6090010329
11770000000.0	73.3166990694
11772625000.0	74.2371961813
11775250000.0	72.1647989778
11777875000.0	71.1609203781
11780500000.0	70.9330612991
11783125000.0	72.7462013761
11785750000.0	72.8260511797
11788375000.0	71.7473224051
11791000000.0	73.5193163467
11793625000.0	72.8468833541
11796250000.0	72.5306076111
11798875000.0	71.823398734
11801500000.0	73.1830229386
11804125000.0	72.9382802926
11806750000.0	71.6449317118
11809375000.0	74.6037546525
11812000000.0	73.8304720073
11814625000.0	71.0075200096
11817250000.0	74.1178885754
11819875000.0	74.5233019816
11822500000.0	71.8508347188
11825125000.0	72.6460869713
11827750000.0	73.0754007093
11830375000.0	71.5499368866
11833000000.0	73.6285057131
11835625000.0	74.3555019191
11838250000.0	71.5495859265
11840875000.0	74.0741527907
11843500000.0	71.8814632441
11846125000.0	73.5385141981
11848750000.0	73.4228219813
11851375000.0	72.4067407858
11854000000.0	72.9951283988
11856625000.0	72.2173867793
11859250000.0	70.8966006425
11861875000.0	73.0109977104
11864500000.0	74.0902797458
11867125000.0	73.7914172127
11869750000.0	73.858627037
11872375000.0	73.413342854
11875000000.0	73.00372499
11877625000.0	73.2258561361
11880250000.0	73.10420195
11882875000.0	73.3854135163
11885500000.0	75.2482733365
11888125000.0	74.6584172387
11890750000.0	76.2958354749
11893375000.0	73.4374662287
11896000000.0	73.0650813118
11898625000.0	72.3403518653
11901250000.0	72.6648759086
11903875000.0	76.2847616072
11906500000.0	73.8703643204
11909125000.0	71.8631893456
11911750000.0	74.1754926224
11914375000.0	72.9493837544
11917000000.0	72.3984010003
11919625000.0	74.0506899831
11922250000.0	73.6341001441
11924875000.0	71.0755561271
11927500000.0	72.7816080597
11930125000.0	72.5192183776
11932750000.0	72.4473346292
11935375000.0	72.4942427463
11938000000.0	72.4499025674
11940625000.0	72.1661277372
11943250000.0	72.284146861
11945875000.0	72.7110755363
11948500000.0	73.4936141346
11951125000.0	72.5679420019
11953750000.0	74.2784240898
11956375000.0	70.9845951374
11959000000.0	72.8580655418
11961625000.0	72.672302245
11964250000.0	71.283434506
11966875000.0	74.2439772403
11969500000.0	72.6413029771
11972125000.0	72.2865684493
11974750000.0	71.6725534349
11977375000.0	71.9419586581
11980000000.0	71.9341678011
11982625000.0	70.8192170128
11985250000.0	72.0888892495
11987875000.0	71.4506618768
11990500000.0	71.832236304
11993125000.0	74.0855457086
11995750000.0	74.6921395686
11998375000.0	71.9332679766
12001000000.0	74.2664818703
12003625000.0	72.8642652003
12006250000.0	73.2950059348
12008875000.0	74.6170283001
12011500000.0	71.9585300778
12014125000.0	71.8331219983
12016750000.0	71.8631916163
12019375000.0	72.971288262
12022000000.0	73.3885436986
12024625000.0	71.7812198811
12027250000.0	71.7619842564
12029875000.0	74.2495306704
12032500000.0	71.6448412786
12035125000.0	74.2644787691
12037750000.0	72.9135190405
12040375000.0	72.8298101083
12043000000.0	74.1096164935
12045625000.0	74.2923950308
12048250000.0	74.3748710587
12050875000.0	73.8622603978
12053500000.0	73.6263547984
12056125000.0	71.4568717735
12058750000.0	72.0921311168
12061375000.0	72.5933746932
12064000000.0	72.2048077655
12066625000.0	72.2200551484
12069250000.0	74.6579362901
12071875000.0	72.5482293321
12074500000.0	74.1986623713
12077125000.0	73.3000600934
12079750000.0	72.3619129089
12082375000.0	69.6377743072
12085000000.0	71.5395923732
12087625000.0	72.373370563
12090250000.0	72.377552929
12092875000.0	71.8332229651
12095500000.0	70.3743328451
12098125000.0	74.2267296468
12100750000.0	71.4111253425
12103375000.0	73.121546774
12106000000.0	71.3104353415
12108625000.0	71.9387850571
12111250000.0	73.3044710697
12113875000.0	73.8398606976
12116500000.0	72.2948484695
12119125000.0	71.8365323704
12121750000.0	73.3090120609
12124375000.0	70.9566847687
12127000000.0	73.609672395
12129625000.0	71.678073172
12132250000.0	71.1087963124
12134875000.0	71.7826337052
12137500000.0	73.5878895399
12140125000.0	72.7417271051
12142750000.0	71.3141501085
12145375000.0	72.844118725
12148000000.0	69.4640772314
12150625000.0	73.8112360987
12153250000.0	74.2493042054
12155875000.0	71.3147649085
12158500000.0	71.2920216532
12161125000.0	71.7286239412
12163750000.0	73.6134037967
12166375000.0	71.6070029033
12169000000.0	71.630787929
12171625000.0	73.6868434661
12174250000.0	72.4786758111
12176875000.0	70.6574002904
12179500000.0	72.2262120509
12182125000.0	71.4212763958
12184750000.0	72.4601914045
12187375000.0	72.8645936095
12190000000.0	73.3250671635
12192625000.0	71.9894152261
12195250000.0	71.5999130904
12197875000.0	71.5656992067
12200500000.0	69.5778557313
12203125000.0	72.24506444
12205750000.0	71.9254012062
12208375000.0	71.7741915044
12211000000.0	70.6608839925
12213625000.0	71.9905847214
12216250000.0	71.4368962833
12218875000.0	71.5763312612
12221500000.0	70.8167727432
12224125000.0	72.6038814979
12226750000.0	71.7011702519
12229375000.0	72.8948415598
12232000000.0	73.1691707263
12234625000.0	72.1921158885
12237250000.0	72.3205715156
12239875000.0	69.0728436439
12242500000.0	70.8567483882
12245125000.0	72.6548414445
12247750000.0	70.2762559396
12250375000.0	72.4198871109
12253000000.0	72.2141696011
12255625000.0	71.6060597855
12258250000.0	70.1102191526
12260875000.0	70.5052986024
12263500000.0	71.7115927555
12266125000.0	71.8553569026
12268750000.0	69.7596807951
12271375000.0	69.9994286369
12274000000.0	72.5819980732
12276625000.0	69.3094052642
12279250000.0	69.7629233257
12281875000.0	69.6047330098
12284500000.0	68.7062917798
12287125000.0	67.7942592002
12289750000.0	70.1355163333
12292375000.0	69.0350901115
12295000000.0	67.7033982424
12297625000.0	69.7327659408
12300250000.0	70.6160510458
12302875000.0	70.7343088986
12305500000.0	71.562093855
12308125000.0	70.3584525117
12310750000.0	68.8285998253
12313375000.0	70.5206785964
12316000000.0	70.4177875493
12318625000.0	68.7087677096
12321250000.0	70.3796188219
12323875000.0	72.1354624739
12326500000.0	69.9621846276
12329125000.0	69.6974518976
12331750000.0	70.4673279316
12334375000.0	71.3732944978
12337000000.0	70.3789864006
12339625000.0	69.3498485953
12342250000.0	68.6591991625
12344875000.0	68.202978704
12347500000.0	69.4670735794
12350125000.0	70.9814853806
12352750000.0	69.8764851224
12355375000.0	71.1680435443
12358000000.0	69.8992326526
12360625000.0	70.0375614232
12363250000.0	66.7176395568
12365875000.0	67.9373237728
12368500000.0	67.1282417539
12371125000.0	66.8210556225
12373750000.0	68.1522876246
12376375000.0	69.2476087154
12379000000.0	68.6169080498
12381625000.0	66.635620454
12384250000.0	70.7717162321
12386875000.0	68.9423753634
12389500000.0	67.1031487271
12392125000.0	66.5455459756
12394750000.0	67.7369707592
12397375000.0	69.6697220177
12400000000.0	67.8396255948
