Freq(Hz)	RL(%)
8202625000.0	99.6231041326
8205250000.0	98.6273940319
8207875000.0	99.2081100772
8210500000.0	99.442662853
8213125000.0	98.5892945114
8215750000.0	98.847511977
8218375000.0	99.9693164074
8221000000.0	98.2725717032
8223625000.0	98.651526864
8226250000.0	99.593690502
8228875000.0	98.8004379219
8231500000.0	98.9348271457
8234125000.0	98.7887301007
8236750000.0	99.5202243045
8239375000.0	98.8055199647
8242000000.0	98.1611041487
8244625000.0	98.8622206019
8247250000.0	99.2482947163
8249875000.0	98.6781022646
8252500000.0	98.2210642561
8255125000.0	98.1212219965
8257750000.0	97.9664457598
8260375000.0	98.3152735921
8263000000.0	100.035270105
8265625000.0	98.6325084255
8268250000.0	98.6440849663
8270875000.0	99.0055504311
8273500000.0	98.796573745
8276125000.0	98.4268359698
8278750000.0	99.3064388971
8281375000.0	98.6925196544
8284000000.0	97.6568610176
8286625000.0	99.5821509057
8289250000.0	99.1099081233
8291875000.0	98.52142606
8294500000.0	98.1583649718
8297125000.0	98.0844114506
8299750000.0	99.3899764679
8302375000.0	99.1669363693
8305000000.0	97.9366990917
8307625000.0	98.5390744788
8310250000.0	99.650825963
8312875000.0	98.8808631741
8315500000.0	99.401656263
8318125000.0	99.0892034782
8320750000.0	98.7476654988
8323375000.0	98.3799767265
8326000000.0	97.4783667032
8328625000.0	99.6911328528
8331250000.0	98.7557103834
8333875000.0	99.1709525723
8336500000.0	98.1533498474
8339125000.0	98.4855010888
8341750000.0	98.1228880383
8344375000.0	98.7584460713
8347000000.0	97.935769065
8349625000.0	98.2502141602
8352250000.0	98.3289821484
8354875000.0	99.1758246374
8357500000.0	97.047071462
8360125000.0	98.3203605286
8362750000.0	96.8787036008
8365375000.0	97.788186058
8368000000.0	97.6098532393
8370625000.0	98.6242993756
8373250000.0	98.9296697671
8375875000.0	98.5049383038
8378500000.0	98.7883352678
8381125000.0	96.3956378591
8383750000.0	98.5668898547
8386375000.0	99.2669615728
8389000000.0	98.2175752431
8391625000.0	98.0942435109
8394250000.0	97.9968687447
8396875000.0	97.28899475
8399500000.0	98.4244208521
8402125000.0	98.4871977184
8404750000.0	97.4725062142
8407375000.0	98.7695980059
8410000000.0	98.7439672042
8412625000.0	98.0477163792
8415250000.0	98.6365257106
8417875000.0	99.067408878
8420500000.0	98.368467151
8423125000.0	96.9458452684
8425750000.0	99.2881921924
8428375000.0	98.6705602714
8431000000.0	97.8220128187
8433625000.0	99.3205035423
8436250000.0	99.6580249312
8438875000.0	98.2232063807
8441500000.0	98.478383895
8444125000.0	97.8750555414
8446750000.0	97.8525637783
8449375000.0	98.4815904612
8452000000.0	99.1440172003
8454625000.0	98.282711154
8457250000.0	99.1541040642
8459875000.0	98.8628926854
8462500000.0	99.4332337354
8465125000.0	98.4145071084
8467750000.0	98.6448686796
8470375000.0	97.2993538399
8473000000.0	97.8126821588
8475625000.0	98.9784508104
8478250000.0	98.5142159211
8480875000.0	97.3920680744
8483500000.0	97.8851446225
8486125000.0	96.6042459126
8488750000.0	97.2572406696
8491375000.0	97.2553779723
8494000000.0	97.929327385
8496625000.0	97.491421303
8499250000.0	96.6353565561
8501875000.0	96.3176019041
8504500000.0	97.1586866279
8507125000.0	96.1239320175
8509750000.0	97.1891690465
8512375000.0	96.9315103594
8515000000.0	97.5332770272
8517625000.0	96.3692918029
8520250000.0	95.9086549849
8522875000.0	98.8335340585
8525500000.0	96.423716942
8528125000.0	97.6309045763
8530750000.0	97.3759524351
8533375000.0	97.1939535693
8536000000.0	96.8675144179
8538625000.0	97.7478249453
8541250000.0	96.7746327684
8543875000.0	97.0997056696
8546500000.0	96.3616600086
8549125000.0	97.6949005323
8551750000.0	97.8070074464
8554375000.0	97.1719596681
8557000000.0	97.3990220606
8559625000.0	96.6311219973
8562250000.0	98.0310552056
8564875000.0	97.2588213248
8567500000.0	98.1536117425
8570125000.0	97.5374478159
8572750000.0	96.9192719737
8575375000.0	96.5682871573
8578000000.0	98.9562237982
8580625000.0	97.9224106526
8583250000.0	97.7903328371
8585875000.0	97.1385525571
8588500000.0	96.069615079
8591125000.0	97.1486712974
8593750000.0	96.5933703058
8596375000.0	98.7309392065
8599000000.0	96.3728321401
8601625000.0	97.4498163498
8604250000.0	96.4094279071
8606875000.0	96.6131749888
8609500000.0	96.9707096062
8612125000.0	96.970886398
8614750000.0	95.6337376877
8617375000.0	98.1081696145
8620000000.0	96.541722135
8622625000.0	97.2878206497
8625250000.0	96.810647173
8627875000.0	96.9260203019
8630500000.0	97.4113557675
8633125000.0	96.4185442725
8635750000.0	97.0205716868
8638375000.0	97.7838987697
8641000000.0	97.2743007515
8643625000.0	95.600943542
8646250000.0	96.4920571989
8648875000.0	96.1632448153
8651500000.0	96.7812924462
8654125000.0	97.5644952572
8656750000.0	97.1404943882
8659375000.0	97.6052491844
8662000000.0	97.4017732832
8664625000.0	97.2558095758
8667250000.0	96.9592842275
8669875000.0	96.6914685668
8672500000.0	97.8188084025
8675125000.0	97.6388596661
8677750000.0	97.5711471527
8680375000.0	97.2123318097
8683000000.0	97.8625773303
8685625000.0	97.4539412123
8688250000.0	96.677586925
8690875000.0	96.9964595267
8693500000.0	98.3834303007
8696125000.0	97.1402122196
8698750000.0	97.9156950229
8701375000.0	97.2000397602
8704000000.0	98.6042979044
8706625000.0	97.7393522628
8709250000.0	97.6353917527
8711875000.0	98.3022386914
8714500000.0	97.82842938
8717125000.0	96.8450491913
8719750000.0	97.4155986054
8722375000.0	97.1223292384
8725000000.0	96.9063026448
8727625000.0	95.900222779
8730250000.0	98.0165885015
8732875000.0	96.8319729504
8735500000.0	96.9570219216
8738125000.0	95.5244713272
8740750000.0	97.3058354387
8743375000.0	97.1505424387
8746000000.0	96.135711382
8748625000.0	96.3247825319
8751250000.0	97.2482106042
8753875000.0	96.2283461293
8756500000.0	96.3266973989
8759125000.0	96.5668708061
8761750000.0	96.1125054383
8764375000.0	96.4682797251
8767000000.0	96.5161554851
8769625000.0	96.4222887365
8772250000.0	96.4538132215
8774875000.0	97.421153114
8777500000.0	97.1447932256
8780125000.0	97.311490876
8782750000.0	96.4111932169
8785375000.0	96.7460175211
8788000000.0	96.8129656129
8790625000.0	95.8507747615
8793250000.0	97.5337296996
8795875000.0	95.9163819797
8798500000.0	96.8571260928
8801125000.0	96.86669094
8803750000.0	95.8032746494
8806375000.0	97.8595548542
8809000000.0	95.8935554026
8811625000.0	97.7155541664
8814250000.0	97.4244269206
8816875000.0	96.9176007849
8819500000.0	96.7806452253
8822125000.0	96.4872786721
8824750000.0	96.31751589
8827375000.0	96.1222106788
8830000000.0	96.6071136702
8832625000.0	96.6720655898
8835250000.0	97.571692213
8837875000.0	96.9376812431
8840500000.0	96.1862272319
8843125000.0	97.8777695623
8845750000.0	97.1212981811
8848375000.0	96.1947340061
8851000000.0	96.5377886732
8853625000.0	97.3811168255
8856250000.0	97.9561784784
8858875000.0	96.4705334246
8861500000.0	97.4891106524
8864125000.0	95.9887153132
8866750000.0	96.3454729453
8869375000.0	96.706265181
8872000000.0	96.5148722706
8874625000.0	96.626982658
8877250000.0	96.4427687534
8879875000.0	95.9338169126
8882500000.0	96.3667398217
8885125000.0	96.4263573188
8887750000.0	95.8993380287
8890375000.0	95.7866043297
8893000000.0	97.2890587942
8895625000.0	96.3271844817
8898250000.0	95.9379773561
8900875000.0	97.1441435299
8903500000.0	94.8692931833
8906125000.0	97.179100526
8908750000.0	96.3406168383
8911375000.0	96.3423757342
8914000000.0	96.4440509239
8916625000.0	96.59831139
8919250000.0	96.6710654276
8921875000.0	96.3764932124
8924500000.0	96.2579755321
8927125000.0	96.3610035605
8929750000.0	97.2408810452
8932375000.0	96.6458617289
8935000000.0	96.9945017027
8937625000.0	96.2280345336
8940250000.0	96.6360687831
8942875000.0	95.9993622144
8945500000.0	96.727008323
8948125000.0	96.2399137906
8950750000.0	97.2549365613
8953375000.0	96.7483995962
8956000000.0	96.5301161405
8958625000.0	95.9775217862
8961250000.0	96.8340005082
8963875000.0	97.8947882024
8966500000.0	96.9481465246
8969125000.0	97.1123083797
8971750000.0	96.9877668113
8974375000.0	96.5969243773
8977000000.0	97.0544197939
8979625000.0	96.7589121055
8982250000.0	96.2013277219
8984875000.0	96.1028415722
8987500000.0	95.5820485909
8990125000.0	96.11985908
8992750000.0	95.8647148229
8995375000.0	96.4341255975
8998000000.0	95.4217082848
9000625000.0	94.8783696864
9003250000.0	95.4382546716
9005875000.0	95.7843949373
9008500000.0	96.597195765
9011125000.0	95.0472854639
9013750000.0	94.229378971
9016375000.0	95.1632860796
9019000000.0	95.7906203499
9021625000.0	93.6376995692
9024250000.0	95.3048590256
9026875000.0	96.0075494651
9029500000.0	95.979008168
9032125000.0	94.9053632717
9034750000.0	94.9142065944
9037375000.0	95.668840598
9040000000.0	95.4613787077
9042625000.0	95.7252751565
9045250000.0	95.256501623
9047875000.0	95.5375874535
9050500000.0	95.2386715562
9053125000.0	95.643244903
9055750000.0	94.9890451747
9058375000.0	94.8626937903
9061000000.0	96.3922264183
9063625000.0	96.6861507508
9066250000.0	96.0350606832
9068875000.0	96.0315726865
9071500000.0	95.800920058
9074125000.0	95.7551605553
9076750000.0	95.1173427189
9079375000.0	95.8842194542
9082000000.0	96.1861760952
9084625000.0	96.9557394083
9087250000.0	96.9376153097
9089875000.0	95.1421530427
9092500000.0	96.3354321808
9095125000.0	95.3566309445
9097750000.0	96.0426016905
9100375000.0	96.2092483468
9103000000.0	95.1997310432
9105625000.0	95.6788285678
9108250000.0	96.7470087892
9110875000.0	96.3295555329
9113500000.0	95.2840638071
9116125000.0	96.7677539049
9118750000.0	96.2205432714
9121375000.0	95.8364922582
9124000000.0	95.6558802399
9126625000.0	96.3132165727
9129250000.0	95.1137399533
9131875000.0	97.4093589686
9134500000.0	94.4009214406
9137125000.0	96.3396581241
9139750000.0	95.285106549
9142375000.0	95.8480442363
9145000000.0	94.3627473848
9147625000.0	95.8531534077
9150250000.0	95.8274987475
9152875000.0	94.5341229617
9155500000.0	95.4846987052
9158125000.0	95.4293426794
9160750000.0	96.3426015365
9163375000.0	96.1318625048
9166000000.0	96.2585304728
9168625000.0	96.368078293
9171250000.0	95.9675144762
9173875000.0	96.7876590141
9176500000.0	96.480397134
9179125000.0	97.0978171226
9181750000.0	95.8019549272
9184375000.0	95.4631634725
9187000000.0	96.3724457973
9189625000.0	96.1086358104
9192250000.0	95.3098456723
9194875000.0	95.5420822559
9197500000.0	95.5858923025
9200125000.0	95.5227522481
9202750000.0	96.1194173138
9205375000.0	95.2625860112
9208000000.0	95.0926541268
9210625000.0	96.5307830863
9213250000.0	95.3749311113
9215875000.0	96.5261561709
9218500000.0	95.5185308671
9221125000.0	95.8510463601
9223750000.0	95.5836434181
9226375000.0	96.8365570452
9229000000.0	96.3836255233
9231625000.0	96.7456097211
9234250000.0	95.5570104933
9236875000.0	95.4104034468
9239500000.0	95.6243392032
9242125000.0	95.2525767898
9244750000.0	96.3076588754
9247375000.0	94.5606568242
9250000000.0	95.4648259176
9252625000.0	95.6299813692
9255250000.0	96.0580205674
9257875000.0	95.3874532529
9260500000.0	95.5803535491
9263125000.0	94.9676173581
9265750000.0	95.4496495649
9268375000.0	94.8191355286
9271000000.0	95.6216000555
9273625000.0	95.4352069282
9276250000.0	94.74041166
9278875000.0	96.3780040066
9281500000.0	96.1155295499
9284125000.0	96.1349851141
9286750000.0	94.9563295645
9289375000.0	95.726566953
9292000000.0	94.5624265117
9294625000.0	95.5173124623
9297250000.0	95.0144828329
9299875000.0	94.1978765522
9302500000.0	93.8938721056
9305125000.0	94.1214675026
9307750000.0	94.4318579363
9310375000.0	95.315849087
9313000000.0	94.3798791303
9315625000.0	95.2516799186
9318250000.0	95.8894934484
9320875000.0	95.6389909705
9323500000.0	94.4348412696
9326125000.0	94.691120096
9328750000.0	96.2110735449
9331375000.0	96.2183945278
9334000000.0	93.9111759326
9336625000.0	95.5276314948
9339250000.0	94.8294482014
9341875000.0	95.126475889
9344500000.0	95.8719304423
9347125000.0	94.1513922377
9349750000.0	94.671572636
9352375000.0	95.1413177492
9355000000.0	95.5594977953
9357625000.0	95.9510876878
9360250000.0	94.45116432
9362875000.0	96.1198397099
9365500000.0	95.4354098678
9368125000.0	95.5530398954
9370750000.0	95.4164119961
9373375000.0	95.4118071529
9376000000.0	95.2564492319
9378625000.0	94.8444344705
9381250000.0	95.1103240001
9383875000.0	96.2283865355
9386500000.0	95.447435814
9389125000.0	95.2631086804
9391750000.0	95.3151125548
9394375000.0	94.991965539
9397000000.0	94.5672940172
9399625000.0	94.9214321761
9402250000.0	95.5414876294
9404875000.0	94.8353246359
9407500000.0	94.4238829732
9410125000.0	95.174484849
9412750000.0	95.3298101772
9415375000.0	94.7644472608
9418000000.0	94.8444520577
9420625000.0	93.0757531149
9423250000.0	95.0138212718
9425875000.0	94.3734221808
9428500000.0	96.3536882073
9431125000.0	94.9076357307
9433750000.0	94.3820376032
9436375000.0	94.5755185006
9439000000.0	95.4028266342
9441625000.0	94.3394146704
9444250000.0	95.9619197128
9446875000.0	95.7620790261
9449500000.0	93.9405941516
9452125000.0	95.8765883212
9454750000.0	94.5123251872
9457375000.0	95.5180623797
9460000000.0	95.150270531
9462625000.0	95.7180147049
9465250000.0	93.79479745
9467875000.0	95.6274137554
9470500000.0	94.4953321813
9473125000.0	95.2119319827
9475750000.0	95.1847312768
9478375000.0	95.7972308761
9481000000.0	95.4443113968
9483625000.0	96.3615080908
9486250000.0	95.7477586173
9488875000.0	94.9086387987
9491500000.0	96.5320650118
9494125000.0	95.4887244966
9496750000.0	95.5740599697
9499375000.0	97.5568471142
9502000000.0	95.8689686194
9504625000.0	95.0597984636
9507250000.0	96.3038802998
9509875000.0	96.6643001645
9512500000.0	95.9573715486
9515125000.0	95.229989742
9517750000.0	94.8465144482
9520375000.0	95.4997572937
9523000000.0	94.6791268806
9525625000.0	94.8126276844
9528250000.0	94.5056494385
9530875000.0	95.6179787296
9533500000.0	95.9768779643
9536125000.0	94.5876124449
9538750000.0	95.9785855651
9541375000.0	95.07169087
9544000000.0	96.5194299308
9546625000.0	97.9331797078
9549250000.0	95.2520608884
9551875000.0	94.6910102023
9554500000.0	95.9915956995
9557125000.0	95.0605679368
9559750000.0	95.8575745232
9562375000.0	96.0315372071
9565000000.0	95.4918080632
9567625000.0	94.8176697945
9570250000.0	95.1511262151
9572875000.0	94.8342282659
9575500000.0	94.7141989113
9578125000.0	94.5702319339
9580750000.0	94.3652809234
9583375000.0	94.8568027469
9586000000.0	95.117779727
9588625000.0	93.7514455344
9591250000.0	94.9910175101
9593875000.0	93.781266539
9596500000.0	94.6101528422
9599125000.0	95.0981025187
9601750000.0	94.7890112749
9604375000.0	93.9805579173
9607000000.0	94.2034302559
9609625000.0	92.9525146051
9612250000.0	94.2449523344
9614875000.0	94.1635754641
9617500000.0	93.8185068976
9620125000.0	93.3129986389
9622750000.0	95.116682624
9625375000.0	93.2017679241
9628000000.0	94.5822549949
9630625000.0	94.8373590245
9633250000.0	92.7292539481
9635875000.0	94.9538436627
9638500000.0	94.0979439423
9641125000.0	93.7021784259
9643750000.0	95.6575428482
9646375000.0	93.9310857329
9649000000.0	95.2653206224
9651625000.0	95.3362031543
9654250000.0	93.3579175666
9656875000.0	94.459948179
9659500000.0	94.4628589996
9662125000.0	94.0110693138
9664750000.0	94.4819140848
9667375000.0	94.9718467057
9670000000.0	94.1733913955
9672625000.0	94.8445132178
9675250000.0	94.2586047951
9677875000.0	94.3790190135
9680500000.0	93.9024150958
9683125000.0	94.79421535
9685750000.0	92.8617180013
9688375000.0	92.6424200687
9691000000.0	93.8969357736
9693625000.0	94.7912584396
9696250000.0	93.8950229486
9698875000.0	94.1770360819
9701500000.0	94.4291167859
9704125000.0	94.7376269941
9706750000.0	93.1391266472
9709375000.0	93.9306223836
9712000000.0	93.1038147103
9714625000.0	93.8275697272
9717250000.0	95.0816755962
9719875000.0	94.9826277421
9722500000.0	94.4764760771
9725125000.0	94.7970163075
9727750000.0	94.1345113534
9730375000.0	94.2511948649
9733000000.0	95.1271135168
9735625000.0	94.8763674528
9738250000.0	94.5128849678
9740875000.0	93.6817462704
9743500000.0	92.8791161722
9746125000.0	94.366939717
9748750000.0	94.2364861913
9751375000.0	94.7653345707
9754000000.0	94.1819537909
9756625000.0	94.6358577935
9759250000.0	94.1824874855
9761875000.0	93.9041834295
9764500000.0	93.805143337
9767125000.0	93.3984302618
9769750000.0	93.9485954525
9772375000.0	95.5131583155
9775000000.0	95.3613033443
9777625000.0	94.8196361427
9780250000.0	94.654903335
9782875000.0	94.7239631883
9785500000.0	94.9188090117
9788125000.0	93.3807984923
9790750000.0	95.4902920101
9793375000.0	94.6110541838
9796000000.0	93.1212525551
9798625000.0	94.0772702419
9801250000.0	93.9093847378
9803875000.0	94.8912561576
9806500000.0	94.5632463815
9809125000.0	94.4276637806
9811750000.0	94.7510574092
9814375000.0	94.323948685
9817000000.0	94.3431813491
9819625000.0	93.7394414223
9822250000.0	93.9082100553
9824875000.0	94.3902322064
9827500000.0	93.778662352
9830125000.0	92.6725094015
9832750000.0	94.4624481273
9835375000.0	93.7309227164
9838000000.0	94.5771347239
9840625000.0	93.7033073109
9843250000.0	93.9653414331
9845875000.0	93.5528500391
9848500000.0	93.5745610527
9851125000.0	94.1554890256
9853750000.0	94.3654040694
9856375000.0	94.2671913425
9859000000.0	94.1158227115
9861625000.0	94.5845121226
9864250000.0	94.6509704044
9866875000.0	94.0605600383
9869500000.0	93.1119333928
9872125000.0	93.3167521942
9874750000.0	93.9824589595
9877375000.0	94.3459266073
9880000000.0	93.437729879
9882625000.0	94.1016092594
9885250000.0	94.3977756628
9887875000.0	93.8163609744
9890500000.0	94.3571894485
9893125000.0	94.046746031
9895750000.0	94.2337236624
9898375000.0	94.2943334213
9901000000.0	94.3289808503
9903625000.0	94.026533586
9906250000.0	94.3553602071
9908875000.0	94.5615184911
9911500000.0	94.0134743925
9914125000.0	94.7551660809
9916750000.0	94.8295605318
9919375000.0	94.4974319173
9922000000.0	93.1417332247
9924625000.0	94.2196787984
9927250000.0	93.4808077375
9929875000.0	93.6912817782
9932500000.0	93.896703258
9935125000.0	93.6882898049
9937750000.0	95.0975600178
9940375000.0	94.0289933076
9943000000.0	93.7857345501
9945625000.0	94.4435092534
9948250000.0	93.7603040104
9950875000.0	94.2823718056
9953500000.0	94.9841124181
9956125000.0	93.8874205656
9958750000.0	93.7404030113
9961375000.0	93.7967968504
9964000000.0	93.8087569331
9966625000.0	93.3582744819
9969250000.0	94.502171744
9971875000.0	94.1219611276
9974500000.0	93.6329900025
9977125000.0	94.2268806041
9979750000.0	93.3720532195
9982375000.0	93.6891915278
9985000000.0	93.4418217717
9987625000.0	93.3779457404
9990250000.0	93.8213367186
9992875000.0	92.8921141605
9995500000.0	93.183954746
9998125000.0	93.9506206528
10000750000.0	93.0703213414
10003375000.0	94.0713894653
10006000000.0	93.5456328003
10008625000.0	93.9018300796
10011250000.0	93.8965997483
10013875000.0	93.4010573526
10016500000.0	93.473882093
10019125000.0	92.9776625937
10021750000.0	94.0595083279
10024375000.0	94.8450097137
10027000000.0	93.9590607964
10029625000.0	94.0964778831
10032250000.0	93.7645024505
10034875000.0	94.5948893566
10037500000.0	94.5605716067
10040125000.0	93.3183962953
10042750000.0	93.3761416628
10045375000.0	94.2269903512
10048000000.0	94.2707310193
10050625000.0	93.3110805647
10053250000.0	93.5267066212
10055875000.0	94.282033677
10058500000.0	94.3857241148
10061125000.0	93.3292165931
10063750000.0	93.8299924863
10066375000.0	94.0625343308
10069000000.0	94.0264737948
10071625000.0	93.889162094
10074250000.0	93.3823881255
10076875000.0	92.6877381663
10079500000.0	93.8631778025
10082125000.0	94.334793045
10084750000.0	93.4952759109
10087375000.0	92.7190467591
10090000000.0	93.1850759075
10092625000.0	93.6729628318
10095250000.0	93.5932837797
10097875000.0	92.7206239109
10100500000.0	92.8231149513
10103125000.0	92.0363745909
10105750000.0	92.5424754908
10108375000.0	92.7919121592
10111000000.0	94.2251168628
10113625000.0	92.960372094
10116250000.0	93.0009973557
10118875000.0	92.9465221539
10121500000.0	92.676358198
10124125000.0	92.2203181249
10126750000.0	93.1452358276
10129375000.0	92.8568755363
10132000000.0	92.525032455
10134625000.0	93.4558749772
10137250000.0	92.4702001271
10139875000.0	92.5359861174
10142500000.0	93.5247163399
10145125000.0	93.1180801276
10147750000.0	93.2098498843
10150375000.0	92.9451838983
10153000000.0	92.6282271199
10155625000.0	92.6162573044
10158250000.0	92.4766854653
10160875000.0	93.2310392554
10163500000.0	93.5161707085
10166125000.0	93.2132732468
10168750000.0	93.742515756
10171375000.0	93.1443908136
10174000000.0	93.2082372403
10176625000.0	92.4813193375
10179250000.0	93.3730075897
10181875000.0	92.864225494
10184500000.0	93.6565707997
10187125000.0	92.3930886147
10189750000.0	92.0360458086
10192375000.0	93.5215041859
10195000000.0	93.0342344891
10197625000.0	93.1154473356
10200250000.0	92.3255578514
10202875000.0	93.5126081282
10205500000.0	92.94297953
10208125000.0	92.493841368
10210750000.0	92.6627682448
10213375000.0	92.2081779824
10216000000.0	92.7997023623
10218625000.0	93.4798565624
10221250000.0	92.3652764427
10223875000.0	93.3401225265
10226500000.0	92.4458685502
10229125000.0	92.5915254631
10231750000.0	93.3918778096
10234375000.0	92.9769153889
10237000000.0	93.6215921952
10239625000.0	93.4753298664
10242250000.0	92.587489759
10244875000.0	93.0736295114
10247500000.0	93.0703263294
10250125000.0	92.7826246464
10252750000.0	92.4408041087
10255375000.0	91.7235553865
10258000000.0	93.0811055276
10260625000.0	92.8730672976
10263250000.0	92.2404606439
10265875000.0	93.1790748529
10268500000.0	93.4471531469
10271125000.0	91.5803166466
10273750000.0	92.4960034912
10276375000.0	93.050807315
10279000000.0	92.3015308379
10281625000.0	93.6812186692
10284250000.0	92.8166086358
10286875000.0	92.6448718374
10289500000.0	91.8783284705
10292125000.0	92.8484844241
10294750000.0	92.5181612123
10297375000.0	92.3527461058
10300000000.0	92.4135620775
10302625000.0	92.2639995695
10305250000.0	92.5404654821
10307875000.0	92.9824622331
10310500000.0	93.0785119274
10313125000.0	91.6804796123
10315750000.0	93.2656080168
10318375000.0	93.2701996605
10321000000.0	92.6608046627
10323625000.0	92.0952357991
10326250000.0	92.4013420968
10328875000.0	92.5912003615
10331500000.0	92.0046516938
10334125000.0	92.6140595689
10336750000.0	91.9145426879
10339375000.0	91.8968090094
10342000000.0	92.4767791367
10344625000.0	92.7882772468
10347250000.0	92.7015441565
10349875000.0	92.4404474023
10352500000.0	92.339375111
10355125000.0	92.017789357
10357750000.0	91.2536851985
10360375000.0	92.646580683
10363000000.0	93.2571232644
10365625000.0	92.7607003613
10368250000.0	92.7240062841
10370875000.0	92.2602240228
10373500000.0	91.5537940388
10376125000.0	92.1864114737
10378750000.0	90.9326007361
10381375000.0	91.47206931
10384000000.0	91.6932626999
10386625000.0	91.2042696996
10389250000.0	91.9770155768
10391875000.0	92.1636392546
10394500000.0	91.4545622783
10397125000.0	92.8753191778
10399750000.0	92.3491641695
10402375000.0	92.5250518995
10405000000.0	91.6861656941
10407625000.0	91.6437181139
10410250000.0	92.4090344963
10412875000.0	91.6631330851
10415500000.0	91.8509323719
10418125000.0	92.2420519644
10420750000.0	91.7035150257
10423375000.0	91.8437151611
10426000000.0	91.8604992129
10428625000.0	91.3106372283
10431250000.0	92.749238567
10433875000.0	92.4652526645
10436500000.0	91.4505466822
10439125000.0	91.8656755137
10441750000.0	92.4030124948
10444375000.0	91.5867187062
10447000000.0	92.7211887781
10449625000.0	91.2109697155
10452250000.0	91.2762748933
10454875000.0	91.7663635507
10457500000.0	92.5353089684
10460125000.0	92.1572778126
10462750000.0	92.0629586928
10465375000.0	92.1316744951
10468000000.0	91.8761543114
10470625000.0	91.2276572912
10473250000.0	90.3199105139
10475875000.0	91.4298305743
10478500000.0	91.3291483317
10481125000.0	92.422780155
10483750000.0	90.6108602412
10486375000.0	91.9271993692
10489000000.0	90.6534330897
10491625000.0	90.0188452069
10494250000.0	91.7755773452
10496875000.0	91.053343418
10499500000.0	90.8096930735
10502125000.0	91.1596615388
10504750000.0	89.5438729857
10507375000.0	90.5262862172
10510000000.0	90.762083183
10512625000.0	91.3568305744
10515250000.0	90.7407630156
10517875000.0	90.7285012994
10520500000.0	91.3523469012
10523125000.0	91.9840286867
10525750000.0	91.0924750109
10528375000.0	91.8982705513
10531000000.0	92.538690559
10533625000.0	92.2658592486
10536250000.0	91.5338262889
10538875000.0	90.3123452464
10541500000.0	92.2448067881
10544125000.0	89.7276306334
10546750000.0	91.9324267624
10549375000.0	91.1818434688
10552000000.0	90.693392143
10554625000.0	93.1457444016
10557250000.0	91.8701101413
10559875000.0	90.2561382618
10562500000.0	90.7339437816
10565125000.0	92.5722505691
10567750000.0	91.2205267751
10570375000.0	90.0871086653
10573000000.0	90.5464456124
10575625000.0	91.7765549315
10578250000.0	92.0419071252
10580875000.0	92.0247504426
10583500000.0	92.0888853257
10586125000.0	90.9863750708
10588750000.0	91.2158483007
10591375000.0	92.3159232529
10594000000.0	90.6114435016
10596625000.0	92.2780957135
10599250000.0	90.1917421304
10601875000.0	92.186833482
10604500000.0	91.2338032513
10607125000.0	92.319802942
10609750000.0	90.4258153712
10612375000.0	90.6292011463
10615000000.0	89.8483497343
10617625000.0	89.9578198712
10620250000.0	91.1444579849
10622875000.0	89.1428718513
10625500000.0	90.4036611126
10628125000.0	90.6819117356
10630750000.0	88.6018414978
10633375000.0	89.5606908504
10636000000.0	91.6289091128
10638625000.0	91.8470416305
10641250000.0	91.5155934407
10643875000.0	90.3611610413
10646500000.0	90.7094527596
10649125000.0	90.8974482151
10651750000.0	90.294128096
10654375000.0	90.42086996
10657000000.0	90.7014169679
10659625000.0	89.8850730543
10662250000.0	90.3424165978
10664875000.0	90.0113615964
10667500000.0	89.5257774118
10670125000.0	89.1195940855
10672750000.0	90.3085894389
10675375000.0	90.2857981388
10678000000.0	91.5443505402
10680625000.0	89.5067112721
10683250000.0	90.9697487464
10685875000.0	89.158768442
10688500000.0	90.3073904943
10691125000.0	91.1692339845
10693750000.0	90.1093817677
10696375000.0	89.6059179202
10699000000.0	89.7315615225
10701625000.0	89.9386039205
10704250000.0	91.2140673581
10706875000.0	91.6049213226
10709500000.0	91.0330790089
10712125000.0	90.3095307777
10714750000.0	89.5767703739
10717375000.0	90.3551553387
10720000000.0	90.9120703519
10722625000.0	90.8279757888
10725250000.0	89.5540603177
10727875000.0	89.8104304402
10730500000.0	90.3766963618
10733125000.0	89.0714642492
10735750000.0	90.6942786184
10738375000.0	90.117455332
10741000000.0	89.1733746435
10743625000.0	90.2456542359
10746250000.0	89.568393767
10748875000.0	90.1515722057
10751500000.0	90.5280456553
10754125000.0	90.4243799673
10756750000.0	89.398075683
10759375000.0	89.2704045889
10762000000.0	90.2034089084
10764625000.0	89.2567151134
10767250000.0	90.5190536731
10769875000.0	90.7277636377
10772500000.0	89.0018128931
10775125000.0	89.6121785348
10777750000.0	89.8793802099
10780375000.0	88.0360611773
10783000000.0	89.6443190422
10785625000.0	87.9808316064
10788250000.0	89.3173356685
10790875000.0	87.9690959746
10793500000.0	88.4095431059
10796125000.0	87.984374171
10798750000.0	88.3790823427
10801375000.0	87.5127857508
10804000000.0	89.2226880333
10806625000.0	89.3177366549
10809250000.0	88.8143474082
10811875000.0	88.701363243
10814500000.0	89.5667049309
10817125000.0	88.8453578579
10819750000.0	88.7604667677
10822375000.0	87.3721597976
10825000000.0	89.183041274
10827625000.0	88.4536366073
10830250000.0	88.7790630736
10832875000.0	90.0874684294
10835500000.0	89.0150926574
10838125000.0	90.8007187476
10840750000.0	89.4995383223
10843375000.0	90.9731124117
10846000000.0	89.4282495038
10848625000.0	89.691084694
10851250000.0	89.5890709743
10853875000.0	88.9080738385
10856500000.0	89.7089041974
10859125000.0	88.2408038311
10861750000.0	89.5191523398
10864375000.0	90.4925904311
10867000000.0	90.9727007591
10869625000.0	88.5190240936
10872250000.0	88.574133621
10874875000.0	89.5122367155
10877500000.0	89.3783903086
10880125000.0	88.8016862116
10882750000.0	89.1596868984
10885375000.0	89.7843327852
10888000000.0	89.4276463725
10890625000.0	90.5203207184
10893250000.0	89.4658151643
10895875000.0	88.6981003057
10898500000.0	90.013743361
10901125000.0	89.2058177928
10903750000.0	88.9092379248
10906375000.0	88.9756434615
10909000000.0	90.0384715158
10911625000.0	88.0651032278
10914250000.0	88.5662806842
10916875000.0	88.2940578993
10919500000.0	87.6825785007
10922125000.0	87.4748170243
10924750000.0	87.6690787143
10927375000.0	89.5984861881
10930000000.0	88.1832575432
10932625000.0	90.0779870012
10935250000.0	88.8738248794
10937875000.0	87.8464890887
10940500000.0	89.724798875
10943125000.0	87.8482006816
10945750000.0	89.0347044278
10948375000.0	88.4683131399
10951000000.0	89.1132461365
10953625000.0	89.2439588142
10956250000.0	88.3444564737
10958875000.0	88.7112822216
10961500000.0	89.4688181072
10964125000.0	88.2104175233
10966750000.0	89.1475073423
10969375000.0	89.2429788762
10972000000.0	87.8559081399
10974625000.0	89.4658949547
10977250000.0	89.5176281588
10979875000.0	89.6479382978
10982500000.0	90.2565797563
10985125000.0	88.9605875729
10987750000.0	88.6816595559
10990375000.0	89.4926547266
10993000000.0	88.562108035
10995625000.0	88.6622412906
10998250000.0	90.0673308674
11000875000.0	89.8951463965
11003500000.0	88.8130343719
11006125000.0	88.938021636
11008750000.0	89.7686163231
11011375000.0	90.3185375391
11014000000.0	89.7130277899
11016625000.0	90.8397730022
11019250000.0	90.2350589773
11021875000.0	89.0884936883
11024500000.0	89.9839230017
11027125000.0	89.7778746494
11029750000.0	88.9418242658
11032375000.0	88.8282266565
11035000000.0	90.2608408104
11037625000.0	89.3216974711
11040250000.0	90.6923925821
11042875000.0	89.0891678678
11045500000.0	89.262996216
11048125000.0	90.4057148031
11050750000.0	87.6918052425
11053375000.0	89.3550316361
11056000000.0	88.9936953494
11058625000.0	89.9595776994
11061250000.0	89.5915575624
11063875000.0	88.9635704355
11066500000.0	88.6876634392
11069125000.0	88.9086325352
11071750000.0	88.0316965153
11074375000.0	89.1303560622
11077000000.0	88.2532879015
11079625000.0	87.2568828872
11082250000.0	90.6964666511
11084875000.0	89.2572094786
11087500000.0	89.8621084799
11090125000.0	87.4174544666
11092750000.0	87.753535628
11095375000.0	88.4335949505
11098000000.0	90.0310660191
11100625000.0	91.006062924
11103250000.0	88.5187902512
11105875000.0	87.4699859055
11108500000.0	89.0228347843
11111125000.0	89.3404128809
11113750000.0	87.4480337821
11116375000.0	87.6177201005
11119000000.0	87.9382628026
11121625000.0	87.5931082062
11124250000.0	88.757718689
11126875000.0	88.3941196754
11129500000.0	88.9754718304
11132125000.0	87.9360752238
11134750000.0	87.634582708
11137375000.0	87.0872837084
11140000000.0	90.1722587753
11142625000.0	88.0123323648
11145250000.0	86.1620742356
11147875000.0	88.2656837586
11150500000.0	87.3140236732
11153125000.0	87.579319551
11155750000.0	88.5826385758
11158375000.0	86.901186224
11161000000.0	88.2347882694
11163625000.0	89.6936975411
11166250000.0	87.5482408495
11168875000.0	89.2384163254
11171500000.0	88.4948210139
11174125000.0	87.5555712347
11176750000.0	89.4532537458
11179375000.0	88.6830213847
11182000000.0	87.5550042701
11184625000.0	88.8701029698
11187250000.0	88.5699100653
11189875000.0	89.2349275156
11192500000.0	88.907486493
11195125000.0	87.5183113323
11197750000.0	87.770153657
11200375000.0	86.876249993
11203000000.0	89.74844832
11205625000.0	87.7193115045
11208250000.0	88.9315641903
11210875000.0	87.4236390796
11213500000.0	88.9611612716
11216125000.0	87.4952613486
11218750000.0	87.0373575823
11221375000.0	88.2180721326
11224000000.0	88.0948954528
11226625000.0	87.4078908602
11229250000.0	85.8531569332
11231875000.0	85.4975738204
11234500000.0	88.3338805857
11237125000.0	87.394111666
11239750000.0	87.2444041909
11242375000.0	88.2042106555
11245000000.0	89.721659586
11247625000.0	88.446340675
11250250000.0	87.9718589166
11252875000.0	88.1601262738
11255500000.0	88.0342620061
11258125000.0	89.7839243284
11260750000.0	89.6671845767
11263375000.0	88.2815260374
11266000000.0	86.2223138931
11268625000.0	89.3954608222
11271250000.0	88.2271753055
11273875000.0	88.6634073497
11276500000.0	89.0087084491
11279125000.0	87.4438841842
11281750000.0	87.5006681602
11284375000.0	86.6763890903
11287000000.0	86.8758572948
11289625000.0	87.5609204653
11292250000.0	88.3264120788
11294875000.0	86.0365091259
11297500000.0	87.4425557199
11300125000.0	87.3549436027
11302750000.0	87.4849765437
11305375000.0	88.1926096526
11308000000.0	87.340507848
11310625000.0	87.4763762136
11313250000.0	86.8320856237
11315875000.0	87.5735742687
11318500000.0	88.1569621917
11321125000.0	88.1338385805
11323750000.0	88.1007435898
11326375000.0	88.6533848975
11329000000.0	85.8466193068
11331625000.0	87.5926451815
11334250000.0	87.8216776682
11336875000.0	87.2047047744
11339500000.0	87.2288521006
11342125000.0	88.5960927166
11344750000.0	87.0525637908
11347375000.0	87.2729105577
11350000000.0	86.6941293672
11352625000.0	88.697180218
11355250000.0	86.9186949513
11357875000.0	86.479845136
11360500000.0	87.7623969306
11363125000.0	87.8454999298
11365750000.0	87.5977309098
11368375000.0	86.0207198241
11371000000.0	88.2390364175
11373625000.0	89.460207234
11376250000.0	88.645633295
11378875000.0	88.7919375696
11381500000.0	87.3586668797
11384125000.0	88.970794587
11386750000.0	88.572810683
11389375000.0	87.7474294625
11392000000.0	88.4354892371
11394625000.0	87.8237276867
11397250000.0	89.3295580892
11399875000.0	87.6056818667
11402500000.0	85.366197068
11405125000.0	86.1527473931
11407750000.0	86.524181033
11410375000.0	86.1890501281
11413000000.0	88.4947725349
11415625000.0	87.6548299848
11418250000.0	87.5178489783
11420875000.0	86.8343337818
11423500000.0	87.5944981718
11426125000.0	86.9969134024
11428750000.0	85.9609678135
11431375000.0	85.917564245
11434000000.0	85.9709785911
11436625000.0	87.6118197195
11439250000.0	87.3669775496
11441875000.0	85.4612401192
11444500000.0	86.9802926957
11447125000.0	85.6338780978
11449750000.0	87.002174652
11452375000.0	86.1371319599
11455000000.0	87.5874701371
11457625000.0	86.6735994467
11460250000.0	86.9655060985
11462875000.0	85.015845248
11465500000.0	87.0783117732
11468125000.0	85.3628952264
11470750000.0	85.2961632345
11473375000.0	87.071572597
11476000000.0	85.8726674633
11478625000.0	86.090575466
11481250000.0	85.8306227526
11483875000.0	86.9891586266
11486500000.0	87.3609721144
11489125000.0	85.700875158
11491750000.0	86.5452183781
11494375000.0	85.4310087076
11497000000.0	84.9703116945
11499625000.0	86.241453622
11502250000.0	86.0311816825
11504875000.0	85.4332698515
11507500000.0	87.7954266849
11510125000.0	86.2379068233
11512750000.0	85.5598295113
11515375000.0	84.8579104043
11518000000.0	85.578455813
11520625000.0	85.4860728458
11523250000.0	85.5939920542
11525875000.0	86.5731920426
11528500000.0	85.4432939829
11531125000.0	86.0333002508
11533750000.0	85.4989145764
11536375000.0	84.9570634148
11539000000.0	86.0481262219
11541625000.0	86.3533675766
11544250000.0	86.4153579755
11546875000.0	84.1784204764
11549500000.0	87.3817348534
11552125000.0	86.6058461498
11554750000.0	86.6701856392
11557375000.0	86.7230778581
11560000000.0	86.4688865268
11562625000.0	87.4753033699
11565250000.0	87.03482802
11567875000.0	85.5550307461
11570500000.0	86.9390001661
11573125000.0	87.3845493106
11575750000.0	85.8766678831
11578375000.0	85.8230181078
11581000000.0	86.1915791762
11583625000.0	87.3752500134
11586250000.0	84.5852667946
11588875000.0	86.0701952406
11591500000.0	88.4057054569
11594125000.0	87.4188809692
11596750000.0	85.7068171818
11599375000.0	87.3956639746
11602000000.0	87.3151672513
11604625000.0	85.7574981082
11607250000.0	87.3901932091
11609875000.0	85.8636468173
11612500000.0	84.7021451208
11615125000.0	83.8626540917
11617750000.0	84.843644007
11620375000.0	83.9996655181
11623000000.0	85.8431013096
11625625000.0	86.454104122
11628250000.0	84.9625923253
11630875000.0	84.5072054432
11633500000.0	85.3551507869
11636125000.0	85.8955796681
11638750000.0	86.988460505
11641375000.0	85.1267746181
11644000000.0	85.9548837026
11646625000.0	87.4653996976
11649250000.0	86.4389103924
11651875000.0	86.7895195739
11654500000.0	85.9679715405
11657125000.0	85.7819786304
11659750000.0	85.4730944425
11662375000.0	85.0571561256
11665000000.0	85.6590595873
11667625000.0	85.5047696929
11670250000.0	87.4310964006
11672875000.0	85.6996003445
11675500000.0	86.0623261534
11678125000.0	86.4335745163
11680750000.0	85.5729751264
11683375000.0	86.5078128806
11686000000.0	85.384032075
11688625000.0	84.9839076616
11691250000.0	86.5462872418
11693875000.0	87.5465174198
11696500000.0	86.5881898392
11699125000.0	85.3909292835
11701750000.0	86.7504233295
11704375000.0	87.3710957037
11707000000.0	85.5923768733
11709625000.0	86.273894637
11712250000.0	85.9888354063
11714875000.0	87.3611029685
11717500000.0	85.6663034167
11720125000.0	84.2489356449
11722750000.0	85.7407135298
11725375000.0	84.1096847832
11728000000.0	84.9552329498
11730625000.0	84.7045740234
11733250000.0	84.6098282232
11735875000.0	84.1325300863
11738500000.0	82.4351181283
11741125000.0	83.6175322452
11743750000.0	85.5837319126
11746375000.0	84.3084098893
11749000000.0	83.5668603913
11751625000.0	84.0005681364
11754250000.0	84.0804804258
11756875000.0	85.4450366703
11759500000.0	83.9938155883
11762125000.0	83.930818741
11764750000.0	83.4202217435
11767375000.0	83.6601947708
11770000000.0	83.5874301845
11772625000.0	84.6520410835
11775250000.0	86.0894002159
11777875000.0	83.3940339041
11780500000.0	85.1110571716
11783125000.0	86.1552356716
11785750000.0	85.3205410719
11788375000.0	83.1470169309
11791000000.0	84.1858428133
11793625000.0	85.2108090135
11796250000.0	84.9291518724
11798875000.0	85.8864077918
11801500000.0	84.728505079
11804125000.0	83.575639693
11806750000.0	84.3497760947
11809375000.0	85.5757212513
11812000000.0	84.983415036
11814625000.0	83.6296770405
11817250000.0	85.204428765
11819875000.0	85.4010741283
11822500000.0	84.6919836599
11825125000.0	84.7717009153
11827750000.0	82.8208464229
11830375000.0	84.0703489171
11833000000.0	85.6374178561
11835625000.0	84.4742065662
11838250000.0	84.1777564783
11840875000.0	84.1069881301
11843500000.0	83.8402434596
11846125000.0	83.5223066498
11848750000.0	84.1876558253
11851375000.0	83.2930671582
11854000000.0	85.2091746611
11856625000.0	82.8638565659
11859250000.0	81.8136326587
11861875000.0	83.8481969285
11864500000.0	83.1601179408
11867125000.0	84.0385346166
11869750000.0	84.8068421252
11872375000.0	83.7018682089
11875000000.0	82.9490184585
11877625000.0	83.8243659827
11880250000.0	84.1942699658
11882875000.0	84.7721396238
11885500000.0	85.1870551288
11888125000.0	83.7816918513
11890750000.0	85.6412029289
11893375000.0	85.0888808128
11896000000.0	83.7468188116
11898625000.0	82.7932763773
11901250000.0	85.5218709983
11903875000.0	84.8708834036
11906500000.0	84.6502322202
11909125000.0	84.2527669913
11911750000.0	85.2076867616
11914375000.0	82.6887782126
11917000000.0	82.6986192004
11919625000.0	84.4800683418
11922250000.0	84.2354242722
11924875000.0	83.1998668341
11927500000.0	83.5084524985
11930125000.0	83.0844716788
11932750000.0	83.7621313876
11935375000.0	83.6715667279
11938000000.0	83.0727577065
11940625000.0	83.000089208
11943250000.0	82.2627987942
11945875000.0	83.5353755449
11948500000.0	84.2289393343
11951125000.0	83.9024036252
11953750000.0	84.304167082
11956375000.0	81.3965099795
11959000000.0	83.6421984469
11961625000.0	83.1087281177
11964250000.0	82.9140929406
11966875000.0	83.5320244247
11969500000.0	83.5293456062
11972125000.0	82.7420550381
11974750000.0	82.215203818
11977375000.0	83.0910514999
11980000000.0	82.6697816233
11982625000.0	82.1773054458
11985250000.0	81.39078106
11987875000.0	81.9113194391
11990500000.0	82.9254538738
11993125000.0	85.0605183504
11995750000.0	83.3229803001
11998375000.0	81.5214525242
12001000000.0	84.2790322086
12003625000.0	82.7618163988
12006250000.0	82.2719840553
12008875000.0	83.2409541296
12011500000.0	83.1593928972
12014125000.0	81.4459355877
12016750000.0	81.7752893577
12019375000.0	81.8789747022
12022000000.0	83.2835843713
12024625000.0	81.7706142044
12027250000.0	81.4765661355
12029875000.0	84.0151048755
12032500000.0	82.9173257884
12035125000.0	84.3875791447
12037750000.0	83.0017661334
12040375000.0	80.9961867381
12043000000.0	82.2334561082
12045625000.0	82.2846459399
12048250000.0	82.7664714475
12050875000.0	83.0494078491
12053500000.0	82.7435697097
12056125000.0	81.6368033961
12058750000.0	82.1654610588
12061375000.0	82.1170485255
12064000000.0	83.4376809795
12066625000.0	82.9631221524
12069250000.0	83.8414553581
12071875000.0	84.4073074592
12074500000.0	84.5901205383
12077125000.0	84.0703061126
12079750000.0	81.3438237246
12082375000.0	82.0298930573
12085000000.0	82.4284297805
12087625000.0	81.6506821779
12090250000.0	83.4942902954
12092875000.0	82.8325421963
12095500000.0	81.6603347273
12098125000.0	82.7888855852
12100750000.0	83.0140767088
12103375000.0	83.2634026705
12106000000.0	83.0361052255
12108625000.0	83.2991394154
12111250000.0	83.3080555807
12113875000.0	84.1675538854
12116500000.0	84.5725184589
12119125000.0	83.4985391537
12121750000.0	83.5600010672
12124375000.0	81.4141009542
12127000000.0	83.8284482175
12129625000.0	81.9984973344
12132250000.0	82.368237044
12134875000.0	81.5682969514
12137500000.0	83.1987494487
12140125000.0	82.686588871
12142750000.0	81.6065856453
12145375000.0	82.6088994723
12148000000.0	81.606924586
12150625000.0	82.5533233461
12153250000.0	81.527788423
12155875000.0	80.3222907655
12158500000.0	80.9929501959
12161125000.0	82.7643156357
12163750000.0	81.3935496064
12166375000.0	81.1923124565
12169000000.0	81.646509591
12171625000.0	82.2426385509
12174250000.0	81.3145351622
12176875000.0	81.4706825069
12179500000.0	81.4944428323
12182125000.0	79.9973275631
12184750000.0	82.361201662
12187375000.0	83.7314831083
12190000000.0	82.6160817582
12192625000.0	80.7935294724
12195250000.0	82.5240048704
12197875000.0	81.8424769365
12200500000.0	79.8882435493
12203125000.0	82.3561710174
12205750000.0	80.8896401516
12208375000.0	84.4262936957
12211000000.0	81.6528549801
12213625000.0	81.7146530196
12216250000.0	81.5498710102
12218875000.0	82.1751265336
12221500000.0	82.4001987688
12224125000.0	82.8130406948
12226750000.0	80.9875672438
12229375000.0	83.3175016247
12232000000.0	82.8593622007
12234625000.0	82.3283241472
12237250000.0	83.0948916117
12239875000.0	82.3634737665
12242500000.0	81.0473570155
12245125000.0	82.7551654455
12247750000.0	81.3435315552
12250375000.0	82.741384521
12253000000.0	81.4788910619
12255625000.0	80.2697796263
12258250000.0	80.912570393
12260875000.0	81.4478566011
12263500000.0	84.0643244814
12266125000.0	81.4257902746
12268750000.0	79.9567605211
12271375000.0	80.8457191427
12274000000.0	80.9934172372
12276625000.0	79.6257570857
12279250000.0	79.8782466561
12281875000.0	80.12941969
12284500000.0	80.3019938189
12287125000.0	80.2793722077
12289750000.0	80.5670455633
12292375000.0	81.4502215263
12295000000.0	80.0769832915
12297625000.0	80.7393363642
12300250000.0	80.7287949388
12302875000.0	81.5017669308
12305500000.0	80.4301129751
12308125000.0	79.3263180599
12310750000.0	78.0126915808
12313375000.0	82.1490560868
12316000000.0	78.7885414799
12318625000.0	79.8843743668
12321250000.0	81.3099146469
12323875000.0	82.1806601098
12326500000.0	79.4046100488
12329125000.0	80.216377451
12331750000.0	81.5211614276
12334375000.0	81.3009402868
12337000000.0	80.3415325091
12339625000.0	79.452226221
12342250000.0	81.1261671789
12344875000.0	77.2856326959
12347500000.0	79.2583292722
12350125000.0	80.2134177448
12352750000.0	79.6778543274
12355375000.0	79.4719530061
12358000000.0	80.3187966775
12360625000.0	79.1598648992
12363250000.0	78.5271794656
12365875000.0	78.184283941
12368500000.0	78.1639178926
12371125000.0	78.4594160668
12373750000.0	78.8994550812
12376375000.0	79.2171265265
12379000000.0	78.6435938054
12381625000.0	78.510818987
12384250000.0	80.9060762016
12386875000.0	79.7071255971
12389500000.0	78.2308321554
12392125000.0	78.869135838
12394750000.0	78.1261200654
12397375000.0	79.9312344273
12400000000.0	79.5730490333
