Freq(Hz)	RL(%)
8202625000.0	73.7210293498
8205250000.0	71.1376886014
8207875000.0	74.4729343709
8210500000.0	71.2322865454
8213125000.0	71.5501229291
8215750000.0	71.6318990268
8218375000.0	74.9505743805
8221000000.0	72.94976001
8223625000.0	71.0908226545
8226250000.0	73.0405224787
8228875000.0	71.6748279548
8231500000.0	69.9158587933
8234125000.0	71.7120480933
8236750000.0	70.0157869381
8239375000.0	71.1323405657
8242000000.0	68.3782602387
8244625000.0	72.1179701896
8247250000.0	74.0675078224
8249875000.0	71.6792061495
8252500000.0	70.7743742853
8255125000.0	73.3412698982
8257750000.0	70.4188460156
8260375000.0	71.4057650412
8263000000.0	73.8687758745
8265625000.0	72.0111072837
8268250000.0	70.5645683918
8270875000.0	73.1761499047
8273500000.0	70.2218463076
8276125000.0	69.8441195581
8278750000.0	69.6598110632
8281375000.0	68.7223411795
8284000000.0	67.7137391905
8286625000.0	70.0467309709
8289250000.0	70.788331719
8291875000.0	68.9121030858
8294500000.0	71.8862957203
8297125000.0	69.4562590048
8299750000.0	71.4150490649
8302375000.0	67.9334552954
8305000000.0	69.8979858865
8307625000.0	69.0490550195
8310250000.0	69.7983159951
8312875000.0	72.0992001933
8315500000.0	70.02040976
8318125000.0	68.7651916522
8320750000.0	71.9046329294
8323375000.0	68.0295781977
8326000000.0	66.8154238737
8328625000.0	66.4990072312
8331250000.0	68.1621979092
8333875000.0	68.4276895704
8336500000.0	66.9643211132
8339125000.0	64.5535024324
8341750000.0	65.0466448166
8344375000.0	64.5458569307
8347000000.0	64.0449521476
8349625000.0	64.7235793445
8352250000.0	64.653343396
8354875000.0	65.84695708
8357500000.0	61.2908871577
8360125000.0	64.8824334287
8362750000.0	64.5674573723
8365375000.0	60.6712516221
8368000000.0	62.2780401843
8370625000.0	62.8543450404
8373250000.0	63.5513219728
8375875000.0	63.2655071868
8378500000.0	64.0426327146
8381125000.0	62.7507751666
8383750000.0	67.0456464128
8386375000.0	65.4468624176
8389000000.0	63.4098651674
8391625000.0	62.1304605974
8394250000.0	61.8394938237
8396875000.0	61.8343279423
8399500000.0	62.9928047782
8402125000.0	64.8848989797
8404750000.0	60.4617753387
8407375000.0	61.5844766972
8410000000.0	63.7000790396
8412625000.0	64.6193101075
8415250000.0	63.0389466297
8417875000.0	65.2336353222
8420500000.0	65.621253585
8423125000.0	62.6142737353
8425750000.0	61.8034903491
8428375000.0	65.614452059
8431000000.0	61.033757252
8433625000.0	62.8013046038
8436250000.0	63.6016175078
8438875000.0	60.1366729772
8441500000.0	62.4106481959
8444125000.0	63.5457111326
8446750000.0	59.78068566
8449375000.0	60.9953316977
8452000000.0	62.2700704137
8454625000.0	58.8658758583
8457250000.0	58.9986612831
8459875000.0	61.1695469359
8462500000.0	61.7035581443
8465125000.0	58.8478321801
8467750000.0	61.5485571738
8470375000.0	58.8328029229
8473000000.0	59.1806550237
8475625000.0	60.0410370036
8478250000.0	58.6918325384
8480875000.0	57.4952912697
8483500000.0	57.8449927878
8486125000.0	58.4297073662
8488750000.0	58.6503759945
8491375000.0	56.3245627835
8494000000.0	56.4507105398
8496625000.0	56.8059518305
8499250000.0	56.2613329723
8501875000.0	56.6434556848
8504500000.0	55.0575516513
8507125000.0	53.4905193387
8509750000.0	55.5751414644
8512375000.0	55.2111847618
8515000000.0	54.2691243186
8517625000.0	53.4497604334
8520250000.0	53.2772341722
8522875000.0	55.43227539
8525500000.0	52.162497532
8528125000.0	55.218062343
8530750000.0	51.4529971193
8533375000.0	54.435816439
8536000000.0	52.4829316968
8538625000.0	55.1415943602
8541250000.0	55.089954258
8543875000.0	54.5685252014
8546500000.0	50.9185246104
8549125000.0	52.7585926591
8551750000.0	50.9608907926
8554375000.0	54.508669676
8557000000.0	51.0774995788
8559625000.0	51.5307490285
8562250000.0	56.2254446429
8564875000.0	52.377228842
8567500000.0	53.1001875946
8570125000.0	52.5875175905
8572750000.0	50.8474944708
8575375000.0	50.399185819
8578000000.0	49.5949525041
8580625000.0	51.9955907919
8583250000.0	49.9005743761
8585875000.0	50.9870979171
8588500000.0	51.1386607503
8591125000.0	50.2627577676
8593750000.0	49.98062266
8596375000.0	50.0280687443
8599000000.0	48.5276523367
8601625000.0	48.2516752199
8604250000.0	46.8262967116
8606875000.0	50.1913403686
8609500000.0	47.9005540575
8612125000.0	48.2553003918
8614750000.0	47.7268268005
8617375000.0	48.6830939253
8620000000.0	47.7040938552
8622625000.0	46.7430142438
8625250000.0	47.4162410999
8627875000.0	47.9152326028
8630500000.0	47.5889002657
8633125000.0	47.326262753
8635750000.0	48.5147443238
8638375000.0	47.6674320726
8641000000.0	46.9051870205
8643625000.0	45.4232839621
8646250000.0	48.1473736673
8648875000.0	45.4697785829
8651500000.0	46.219054605
8654125000.0	47.1647306326
8656750000.0	46.0911948416
8659375000.0	46.8237809068
8662000000.0	47.6530402016
8664625000.0	46.6238526615
8667250000.0	46.9895042788
8669875000.0	43.923818197
8672500000.0	46.4645930677
8675125000.0	45.4575131111
8677750000.0	45.4968237643
8680375000.0	45.9053283597
8683000000.0	45.7646554587
8685625000.0	45.1204519483
8688250000.0	45.0920240779
8690875000.0	44.3901945168
8693500000.0	44.5401061588
8696125000.0	44.8420744105
8698750000.0	45.5523696443
8701375000.0	43.4558201254
8704000000.0	46.5551851398
8706625000.0	43.1221630092
8709250000.0	44.4083047305
8711875000.0	45.6167498173
8714500000.0	45.2972810561
8717125000.0	43.647073579
8719750000.0	44.249062285
8722375000.0	44.0619406958
8725000000.0	41.7843682743
8727625000.0	44.5508857361
8730250000.0	43.8134270437
8732875000.0	42.2598059876
8735500000.0	41.3726848898
8738125000.0	40.341043512
8740750000.0	43.1892530006
8743375000.0	40.9055226101
8746000000.0	41.7848043793
8748625000.0	41.1297488145
8751250000.0	44.5065890141
8753875000.0	42.9858329179
8756500000.0	43.7861108233
8759125000.0	41.8518002925
8761750000.0	41.7416048589
8764375000.0	42.8892144733
8767000000.0	42.7597913807
8769625000.0	41.0582233043
8772250000.0	43.1675060386
8774875000.0	44.0405564112
8777500000.0	43.282953823
8780125000.0	42.9463026158
8782750000.0	42.8041732188
8785375000.0	44.0752337765
8788000000.0	42.2299108172
8790625000.0	43.169562056
8793250000.0	43.4714170568
8795875000.0	41.8439606977
8798500000.0	43.6968411945
8801125000.0	42.5083222397
8803750000.0	40.9861814756
8806375000.0	44.3419046441
8809000000.0	43.3835228972
8811625000.0	43.076649675
8814250000.0	43.4134290297
8816875000.0	43.0652021154
8819500000.0	42.6791456318
8822125000.0	43.1117218079
8824750000.0	41.3370132146
8827375000.0	41.7600263927
8830000000.0	43.2706951227
8832625000.0	43.4397638348
8835250000.0	41.4782915924
8837875000.0	44.455341193
8840500000.0	40.8502087254
8843125000.0	42.7797674022
8845750000.0	42.3631238665
8848375000.0	41.650355167
8851000000.0	42.5090490967
8853625000.0	42.9989687542
8856250000.0	42.1462966852
8858875000.0	43.542985311
8861500000.0	42.9365659596
8864125000.0	41.4314544307
8866750000.0	40.9177184366
8869375000.0	42.9435722324
8872000000.0	39.4812018118
8874625000.0	43.1820291007
8877250000.0	41.3186974869
8879875000.0	43.4590331269
8882500000.0	43.2459405598
8885125000.0	43.3034605992
8887750000.0	40.5677700239
8890375000.0	42.610594625
8893000000.0	39.9835548886
8895625000.0	41.9696858305
8898250000.0	41.2146837591
8900875000.0	41.2956264097
8903500000.0	42.2853284754
8906125000.0	42.8152338122
8908750000.0	42.8770437693
8911375000.0	41.5929354678
8914000000.0	41.5474496819
8916625000.0	42.7228025538
8919250000.0	43.3949832629
8921875000.0	42.7942295706
8924500000.0	42.5641422959
8927125000.0	43.0347332081
8929750000.0	44.8927768878
8932375000.0	43.0866906343
8935000000.0	42.4727538605
8937625000.0	41.8872417765
8940250000.0	43.242332646
8942875000.0	41.7684934943
8945500000.0	43.1137388489
8948125000.0	42.2512394627
8950750000.0	44.0363578294
8953375000.0	43.1084672718
8956000000.0	42.8615090391
8958625000.0	41.1897682713
8961250000.0	41.9573840565
8963875000.0	45.1302423639
8966500000.0	42.6720361842
8969125000.0	42.8440387024
8971750000.0	42.254766266
8974375000.0	44.3409615127
8977000000.0	45.3276840447
8979625000.0	44.0218195979
8982250000.0	43.5380723633
8984875000.0	41.4903280762
8987500000.0	41.8720256644
8990125000.0	42.1766181968
8992750000.0	41.1231798926
8995375000.0	43.547674306
8998000000.0	40.7366624927
9000625000.0	41.1838883477
9003250000.0	40.9314972311
9005875000.0	41.8975245291
9008500000.0	42.4732771411
9011125000.0	41.9734769259
9013750000.0	39.9597388826
9016375000.0	40.9338892448
9019000000.0	41.4691804286
9021625000.0	41.344673525
9024250000.0	43.0459049189
9026875000.0	42.5418711353
9029500000.0	41.8679455875
9032125000.0	39.1686948348
9034750000.0	42.820134524
9037375000.0	42.7638923531
9040000000.0	40.6734547596
9042625000.0	44.3319919028
9045250000.0	40.4350185692
9047875000.0	41.4390681754
9050500000.0	41.7407210463
9053125000.0	42.7877170149
9055750000.0	42.5452053995
9058375000.0	41.0827039501
9061000000.0	42.0357013962
9063625000.0	41.9844949406
9066250000.0	43.6348634304
9068875000.0	40.8956751189
9071500000.0	43.1858225697
9074125000.0	43.7792465946
9076750000.0	42.2364531931
9079375000.0	41.6962995589
9082000000.0	42.1773008484
9084625000.0	42.8898411488
9087250000.0	42.8236464386
9089875000.0	39.6639521546
9092500000.0	43.957041742
9095125000.0	41.7371745135
9097750000.0	40.5039498495
9100375000.0	43.411487869
9103000000.0	39.2425263609
9105625000.0	41.9630405579
9108250000.0	42.5779574131
9110875000.0	42.6088632051
9113500000.0	41.1990555067
9116125000.0	43.6599271971
9118750000.0	42.1468799039
9121375000.0	44.8779783472
9124000000.0	40.2097607433
9126625000.0	43.0623051348
9129250000.0	42.2390514614
9131875000.0	43.8975711551
9134500000.0	39.4737718071
9137125000.0	42.1090766129
9139750000.0	39.2144881922
9142375000.0	41.9733261674
9145000000.0	40.3205098664
9147625000.0	39.5242917394
9150250000.0	40.8280744816
9152875000.0	40.3766490909
9155500000.0	40.1565338807
9158125000.0	39.8926555398
9160750000.0	41.720203683
9163375000.0	40.2005527685
9166000000.0	42.3825691255
9168625000.0	41.3390758623
9171250000.0	41.8523692525
9173875000.0	42.983228492
9176500000.0	41.8252887517
9179125000.0	43.431987085
9181750000.0	40.937575363
9184375000.0	42.862604169
9187000000.0	41.1683190697
9189625000.0	40.4387909345
9192250000.0	40.9166558696
9194875000.0	38.5641942501
9197500000.0	40.4162792167
9200125000.0	40.7013327612
9202750000.0	42.3778082614
9205375000.0	41.0017570738
9208000000.0	40.3880449309
9210625000.0	40.0434868875
9213250000.0	38.8029850275
9215875000.0	40.1248198349
9218500000.0	42.2529517424
9221125000.0	37.9221479416
9223750000.0	40.3836346637
9226375000.0	38.8172189714
9229000000.0	42.1680843885
9231625000.0	39.1609510703
9234250000.0	38.7368876836
9236875000.0	39.6289930085
9239500000.0	41.4418484156
9242125000.0	38.7321200929
9244750000.0	39.7821605986
9247375000.0	39.8923845371
9250000000.0	39.5563760985
9252625000.0	41.4918054822
9255250000.0	39.6592698051
9257875000.0	40.070936539
9260500000.0	42.3210203779
9263125000.0	39.8641623816
9265750000.0	38.4817547805
9268375000.0	39.9113134018
9271000000.0	40.6568033398
9273625000.0	42.5601309582
9276250000.0	38.3448228184
9278875000.0	39.061051838
9281500000.0	40.2288854428
9284125000.0	42.6397913769
9286750000.0	38.1211798756
9289375000.0	41.2128124782
9292000000.0	35.7137928741
9294625000.0	37.4274502937
9297250000.0	37.568085989
9299875000.0	39.7568877606
9302500000.0	37.2234412089
9305125000.0	37.5520158074
9307750000.0	39.3617162922
9310375000.0	38.1893105867
9313000000.0	37.5766406243
9315625000.0	38.5218814262
9318250000.0	37.9509044921
9320875000.0	40.3588634906
9323500000.0	39.2673318523
9326125000.0	36.9046073321
9328750000.0	37.8551920428
9331375000.0	37.0197884841
9334000000.0	36.7555556596
9336625000.0	38.4329553559
9339250000.0	36.5066423548
9341875000.0	37.921253468
9344500000.0	36.1685543822
9347125000.0	38.5075916372
9349750000.0	38.9421465058
9352375000.0	36.6815998444
9355000000.0	37.6431340778
9357625000.0	39.1161948176
9360250000.0	35.8918452681
9362875000.0	37.4726058656
9365500000.0	37.4793747739
9368125000.0	37.9492199095
9370750000.0	36.1713499487
9373375000.0	37.22586299
9376000000.0	37.2691965891
9378625000.0	39.1143513672
9381250000.0	38.1387840968
9383875000.0	37.9600648605
9386500000.0	38.0047912975
9389125000.0	38.9904838586
9391750000.0	35.3969194525
9394375000.0	34.5012490214
9397000000.0	36.0757793922
9399625000.0	36.5854339646
9402250000.0	36.3348827052
9404875000.0	36.5980377618
9407500000.0	34.6025110678
9410125000.0	36.2111386995
9412750000.0	34.2402782538
9415375000.0	36.4313245469
9418000000.0	34.3668449186
9420625000.0	37.1767319016
9423250000.0	35.4307737056
9425875000.0	35.3087017193
9428500000.0	35.7295804296
9431125000.0	36.218176848
9433750000.0	34.4581550294
9436375000.0	34.4371707844
9439000000.0	36.4312321948
9441625000.0	34.6453893374
9444250000.0	36.6163075531
9446875000.0	36.9127411269
9449500000.0	33.7484970761
9452125000.0	35.6011904916
9454750000.0	34.5352623613
9457375000.0	35.1838604406
9460000000.0	35.8632108175
9462625000.0	36.3525352653
9465250000.0	34.5003056699
9467875000.0	34.2827919723
9470500000.0	35.6017469257
9473125000.0	34.5851377616
9475750000.0	36.0029235793
9478375000.0	34.7371202898
9481000000.0	34.4909086618
9483625000.0	35.3011833107
9486250000.0	35.1404630975
9488875000.0	37.5402826715
9491500000.0	35.3627821094
9494125000.0	32.3456760104
9496750000.0	32.376948459
9499375000.0	34.7207083548
9502000000.0	34.5104551877
9504625000.0	32.5137448954
9507250000.0	35.3018100204
9509875000.0	34.1179713263
9512500000.0	33.4868408741
9515125000.0	33.1107796683
9517750000.0	32.5876592358
9520375000.0	34.6572724709
9523000000.0	32.5068862696
9525625000.0	31.174162567
9528250000.0	33.0624048911
9530875000.0	33.3047453804
9533500000.0	31.2590394679
9536125000.0	30.300844655
9538750000.0	33.2315373672
9541375000.0	32.8868774152
9544000000.0	34.52200608
9546625000.0	36.6571635049
9549250000.0	32.1185681762
9551875000.0	33.2527634325
9554500000.0	31.6227029317
9557125000.0	31.3871598982
9559750000.0	31.5069484822
9562375000.0	35.2664247539
9565000000.0	35.035256571
9567625000.0	32.943553785
9570250000.0	32.3606195211
9572875000.0	30.9509031489
9575500000.0	31.1605080877
9578125000.0	30.6595383129
9580750000.0	31.666039859
9583375000.0	32.0884600053
9586000000.0	31.3868133367
9588625000.0	30.5399974837
9591250000.0	30.1993373954
9593875000.0	30.1808422083
9596500000.0	31.5593084859
9599125000.0	31.5317239158
9601750000.0	32.0047970861
9604375000.0	28.8495756895
9607000000.0	27.4653456563
9609625000.0	31.5657624823
9612250000.0	30.40391143
9614875000.0	31.2212628816
9617500000.0	29.0109848317
9620125000.0	29.3416376655
9622750000.0	31.6747990144
9625375000.0	29.8347078941
9628000000.0	28.438370282
9630625000.0	30.5831650717
9633250000.0	29.284242844
9635875000.0	31.1834246702
9638500000.0	30.8065014095
9641125000.0	29.0325425512
9643750000.0	32.6881631149
9646375000.0	28.420319642
9649000000.0	30.8155857438
9651625000.0	29.7236788494
9654250000.0	29.5419902673
9656875000.0	30.7719994684
9659500000.0	29.9141204334
9662125000.0	28.345139924
9664750000.0	28.2411577535
9667375000.0	30.3562997367
9670000000.0	28.2316686488
9672625000.0	30.1961400557
9675250000.0	29.0107085179
9677875000.0	27.7774256872
9680500000.0	29.3351707829
9683125000.0	30.538575694
9685750000.0	26.3963483115
9688375000.0	29.3168118037
9691000000.0	26.7039154115
9693625000.0	28.3815823094
9696250000.0	27.8951498122
9698875000.0	29.2903280656
9701500000.0	29.2645598564
9704125000.0	28.110573953
9706750000.0	26.9984665388
9709375000.0	29.0850496985
9712000000.0	27.5407189974
9714625000.0	29.8298750314
9717250000.0	27.977134021
9719875000.0	30.1086376113
9722500000.0	29.1908660059
9725125000.0	29.2871052105
9727750000.0	29.5322931348
9730375000.0	26.2257724967
9733000000.0	28.6042077521
9735625000.0	30.0093585578
9738250000.0	28.0617467249
9740875000.0	25.8198342708
9743500000.0	26.2384716391
9746125000.0	29.616504673
9748750000.0	28.5840425804
9751375000.0	29.1404260397
9754000000.0	28.7555122449
9756625000.0	29.6046666345
9759250000.0	28.1815545129
9761875000.0	26.9196159758
9764500000.0	26.8564959898
9767125000.0	27.5360453313
9769750000.0	29.0380418878
9772375000.0	27.8133637676
9775000000.0	26.9071335667
9777625000.0	26.7748860537
9780250000.0	27.9487153613
9782875000.0	28.8315550955
9785500000.0	27.2590691871
9788125000.0	28.3900455815
9790750000.0	28.411034119
9793375000.0	27.1202874125
9796000000.0	27.5978693846
9798625000.0	26.0073234743
9801250000.0	27.8419724091
9803875000.0	26.658669618
9806500000.0	27.247699777
9809125000.0	26.3085969631
9811750000.0	27.2059318788
9814375000.0	28.270114039
9817000000.0	28.1926835669
9819625000.0	26.607277801
9822250000.0	27.1409957918
9824875000.0	26.668940418
9827500000.0	27.654180653
9830125000.0	26.0710995414
9832750000.0	26.9890628938
9835375000.0	25.8021755147
9838000000.0	26.1399032388
9840625000.0	26.32184139
9843250000.0	26.1326054763
9845875000.0	26.7344833081
9848500000.0	26.4478205825
9851125000.0	26.1827915065
9853750000.0	26.8862640622
9856375000.0	26.3762521978
9859000000.0	27.4316417228
9861625000.0	27.2859534002
9864250000.0	26.3834121402
9866875000.0	26.8398057898
9869500000.0	26.2219153081
9872125000.0	25.7849524171
9874750000.0	26.8455102362
9877375000.0	26.7411548833
9880000000.0	27.115989591
9882625000.0	26.5607797271
9885250000.0	25.8350833464
9887875000.0	26.9030840471
9890500000.0	27.5907518099
9893125000.0	25.3724294648
9895750000.0	25.9367776538
9898375000.0	26.8880984358
9901000000.0	26.438197366
9903625000.0	26.9969482789
9906250000.0	27.3707185767
9908875000.0	25.3082681978
9911500000.0	26.1743935175
9914125000.0	26.6492682954
9916750000.0	27.9071691969
9919375000.0	28.6686951813
9922000000.0	26.1705973779
9924625000.0	27.348378939
9927250000.0	25.1449014735
9929875000.0	26.3991080785
9932500000.0	26.2757027238
9935125000.0	25.4857790253
9937750000.0	27.6820382812
9940375000.0	28.2384303566
9943000000.0	25.9598554564
9945625000.0	26.3975603607
9948250000.0	25.2980771566
9950875000.0	26.9696037718
9953500000.0	28.1132793291
9956125000.0	26.48103706
9958750000.0	26.2013648712
9961375000.0	26.382618618
9964000000.0	26.4010777617
9966625000.0	26.4622869579
9969250000.0	27.0981628283
9971875000.0	25.8954739833
9974500000.0	27.5417788927
9977125000.0	26.9018658455
9979750000.0	26.6943130735
9982375000.0	26.6072282859
9985000000.0	26.7592718099
9987625000.0	27.5107643238
9990250000.0	27.2967752029
9992875000.0	26.4772337587
9995500000.0	25.8964872702
9998125000.0	26.7874437366
10000750000.0	25.3958035799
10003375000.0	27.1532392295
10006000000.0	26.5291836041
10008625000.0	25.9470500343
10011250000.0	26.106070809
10013875000.0	26.4328753898
10016500000.0	25.1227065843
10019125000.0	25.6288645301
10021750000.0	26.7988468153
10024375000.0	27.75492084
10027000000.0	26.3137339175
10029625000.0	26.6907832919
10032250000.0	27.415609691
10034875000.0	25.8691364324
10037500000.0	27.4460795457
10040125000.0	26.5054883174
10042750000.0	25.582127625
10045375000.0	27.9003489757
10048000000.0	26.1063805943
10050625000.0	26.820859997
10053250000.0	25.4776213222
10055875000.0	27.284986033
10058500000.0	25.7454439787
10061125000.0	26.7863421802
10063750000.0	25.6648183993
10066375000.0	26.3332907804
10069000000.0	26.4485354678
10071625000.0	25.1893774432
10074250000.0	25.9490265888
10076875000.0	26.2982925812
10079500000.0	25.4935799666
10082125000.0	27.0327301551
10084750000.0	24.8812422298
10087375000.0	26.4713975668
10090000000.0	25.5534324973
10092625000.0	26.5120879283
10095250000.0	25.7412339379
10097875000.0	25.0204982185
10100500000.0	25.8511498044
10103125000.0	25.4948696109
10105750000.0	25.4479269688
10108375000.0	26.5887492868
10111000000.0	26.8983755412
10113625000.0	26.6601795037
10116250000.0	26.1961296506
10118875000.0	25.9555664002
10121500000.0	24.9202623691
10124125000.0	26.338538441
10126750000.0	27.0787470487
10129375000.0	25.2628441804
10132000000.0	25.0895444947
10134625000.0	27.1586966718
10137250000.0	25.4076669139
10139875000.0	25.506056099
10142500000.0	25.8123722495
10145125000.0	24.8839303
10147750000.0	26.0587688443
10150375000.0	26.3588265745
10153000000.0	26.5189337102
10155625000.0	26.762411639
10158250000.0	25.6258514581
10160875000.0	26.6689195735
10163500000.0	25.5230923301
10166125000.0	26.8347832804
10168750000.0	27.5084967046
10171375000.0	25.7095014092
10174000000.0	26.9552644628
10176625000.0	26.9872491114
10179250000.0	26.2294545118
10181875000.0	25.8692049476
10184500000.0	26.9779387902
10187125000.0	26.3316047129
10189750000.0	26.4514061419
10192375000.0	26.7242233178
10195000000.0	27.0047815814
10197625000.0	26.32185335
10200250000.0	26.1292944995
10202875000.0	26.8768160673
10205500000.0	27.4142976526
10208125000.0	26.8643120069
10210750000.0	26.5169810921
10213375000.0	25.7259074309
10216000000.0	26.943507905
10218625000.0	27.4664114404
10221250000.0	26.4278942419
10223875000.0	26.7542376219
10226500000.0	26.6630797425
10229125000.0	27.3890191566
10231750000.0	27.3266292039
10234375000.0	26.051135298
10237000000.0	27.0891921052
10239625000.0	28.3365020683
10242250000.0	27.0730601793
10244875000.0	28.0269127011
10247500000.0	28.2712628064
10250125000.0	27.1336738914
10252750000.0	26.8934324996
10255375000.0	26.9789980501
10258000000.0	27.0785786337
10260625000.0	27.1309085028
10263250000.0	26.8356855314
10265875000.0	28.8069515221
10268500000.0	27.8003560182
10271125000.0	27.3763429149
10273750000.0	26.2113418164
10276375000.0	27.4981226464
10279000000.0	27.6209000945
10281625000.0	27.4671974423
10284250000.0	25.9505092649
10286875000.0	27.468166556
10289500000.0	27.6281213267
10292125000.0	27.4751727821
10294750000.0	26.8247839402
10297375000.0	26.4885256964
10300000000.0	27.9593388635
10302625000.0	26.3295141948
10305250000.0	26.7753549497
10307875000.0	26.617157781
10310500000.0	26.9546696123
10313125000.0	26.8468990424
10315750000.0	26.2451564579
10318375000.0	27.0042793214
10321000000.0	28.191898058
10323625000.0	27.3204256149
10326250000.0	26.2934697541
10328875000.0	27.7129049334
10331500000.0	28.4361924113
10334125000.0	27.0035112915
10336750000.0	27.139096428
10339375000.0	27.7440238869
10342000000.0	27.1221660304
10344625000.0	29.0748000807
10347250000.0	26.8637810712
10349875000.0	28.7142547815
10352500000.0	29.3723399422
10355125000.0	29.1651629066
10357750000.0	26.9993456844
10360375000.0	28.6122098545
10363000000.0	28.9689241221
10365625000.0	28.3075342008
10368250000.0	29.2232232365
10370875000.0	29.2529037805
10373500000.0	27.8563253261
10376125000.0	27.7966867565
10378750000.0	27.6376942311
10381375000.0	27.8503062664
10384000000.0	27.6798818625
10386625000.0	28.271885398
10389250000.0	28.4523211116
10391875000.0	29.4709696904
10394500000.0	29.5699097145
10397125000.0	29.4037047622
10399750000.0	28.2487775943
10402375000.0	28.1370360683
10405000000.0	28.2279241677
10407625000.0	28.2494910989
10410250000.0	29.0276766249
10412875000.0	28.8908749085
10415500000.0	28.6428911011
10418125000.0	28.0309752754
10420750000.0	27.9051352412
10423375000.0	27.5637579222
10426000000.0	28.5021381547
10428625000.0	28.4234533887
10431250000.0	29.2998373976
10433875000.0	28.9249134126
10436500000.0	27.648162213
10439125000.0	28.0618416791
10441750000.0	28.5569190635
10444375000.0	27.8126109963
10447000000.0	28.0234491897
10449625000.0	27.1079526632
10452250000.0	28.2785360466
10454875000.0	28.9371726708
10457500000.0	28.330266245
10460125000.0	28.283518652
10462750000.0	28.8650907219
10465375000.0	28.2532407747
10468000000.0	27.9935670623
10470625000.0	28.3831681182
10473250000.0	28.5794575294
10475875000.0	29.5271458742
10478500000.0	28.1808399311
10481125000.0	29.547477785
10483750000.0	27.7126464714
10486375000.0	29.4269847646
10489000000.0	29.0075518004
10491625000.0	27.6740026976
10494250000.0	28.7942414859
10496875000.0	29.3746127999
10499500000.0	29.210525343
10502125000.0	29.2453492674
10504750000.0	30.0640249374
10507375000.0	30.8120758644
10510000000.0	29.2088277994
10512625000.0	31.4811690391
10515250000.0	30.8195163401
10517875000.0	31.1107206497
10520500000.0	29.1850390279
10523125000.0	29.8884024566
10525750000.0	29.928944629
10528375000.0	31.3827299721
10531000000.0	29.4162973287
10533625000.0	30.825935783
10536250000.0	29.7402645861
10538875000.0	31.460012191
10541500000.0	29.5583625434
10544125000.0	28.7737861536
10546750000.0	30.5734985222
10549375000.0	29.5044500693
10552000000.0	29.0348719151
10554625000.0	32.3708338411
10557250000.0	31.1782858662
10559875000.0	30.8246099984
10562500000.0	30.959759943
10565125000.0	30.9027857063
10567750000.0	30.5417161877
10570375000.0	28.8038779522
10573000000.0	30.1205348885
10575625000.0	30.2887108384
10578250000.0	32.0925191232
10580875000.0	30.0104089031
10583500000.0	31.6911242339
10586125000.0	30.9622232055
10588750000.0	30.7338898578
10591375000.0	31.6285278923
10594000000.0	30.9630618701
10596625000.0	32.7550139273
10599250000.0	29.7104930893
10601875000.0	31.4572699411
10604500000.0	29.4912487166
10607125000.0	30.9065400442
10609750000.0	30.6250350639
10612375000.0	31.199889416
10615000000.0	31.5733269383
10617625000.0	30.5036967554
10620250000.0	30.8668374764
10622875000.0	31.027244653
10625500000.0	31.5448590202
10628125000.0	29.887818166
10630750000.0	29.8407959923
10633375000.0	30.8630257727
10636000000.0	32.0067673141
10638625000.0	30.9334525046
10641250000.0	31.8896666439
10643875000.0	31.1140135413
10646500000.0	33.3038514766
10649125000.0	30.8792927921
10651750000.0	32.5682610758
10654375000.0	30.8065020035
10657000000.0	32.4382999317
10659625000.0	31.0756851906
10662250000.0	30.4931663469
10664875000.0	29.8165546422
10667500000.0	30.4681761372
10670125000.0	29.6464347948
10672750000.0	31.7958384641
10675375000.0	31.3841306778
10678000000.0	32.752574574
10680625000.0	31.1705345779
10683250000.0	32.4472667249
10685875000.0	30.7936662871
10688500000.0	32.4379540945
10691125000.0	32.0270526794
10693750000.0	30.8601235527
10696375000.0	31.3884187558
10699000000.0	33.1769116059
10701625000.0	31.0217482752
10704250000.0	32.5986084332
10706875000.0	32.1922115
10709500000.0	31.4011767535
10712125000.0	32.3859365722
10714750000.0	32.8988998673
10717375000.0	30.7796989301
10720000000.0	33.1054253792
10722625000.0	33.6735639739
10725250000.0	32.0851689365
10727875000.0	32.9716926307
10730500000.0	33.5411929165
10733125000.0	31.0348848013
10735750000.0	33.3534192338
10738375000.0	31.5395148905
10741000000.0	31.5235447857
10743625000.0	32.2388086704
10746250000.0	30.541415111
10748875000.0	32.5784563701
10751500000.0	33.6941424756
10754125000.0	34.2480866493
10756750000.0	32.2173621539
10759375000.0	33.3593833439
10762000000.0	34.553887389
10764625000.0	31.2923900155
10767250000.0	33.5482681176
10769875000.0	33.0433213977
10772500000.0	31.5925834997
10775125000.0	33.914348085
10777750000.0	33.8600554049
10780375000.0	33.2061407862
10783000000.0	33.251399881
10785625000.0	32.1055173951
10788250000.0	32.1266179278
10790875000.0	32.413592891
10793500000.0	33.7029398341
10796125000.0	32.8002598091
10798750000.0	32.6975830936
10801375000.0	33.7610050939
10804000000.0	34.0971137984
10806625000.0	32.4056814599
10809250000.0	32.5306796462
10811875000.0	34.6009452838
10814500000.0	33.4330811187
10817125000.0	33.7092493896
10819750000.0	33.9110561798
10822375000.0	33.2141507715
10825000000.0	34.2013984833
10827625000.0	33.8039441863
10830250000.0	33.4005931656
10832875000.0	33.9809285586
10835500000.0	33.8517612962
10838125000.0	34.1641830463
10840750000.0	33.7540418895
10843375000.0	35.1484487939
10846000000.0	35.2406604923
10848625000.0	35.1555102477
10851250000.0	35.1735017214
10853875000.0	33.7236124913
10856500000.0	34.4382804755
10859125000.0	34.8079005912
10861750000.0	35.5056779496
10864375000.0	34.8187382172
10867000000.0	36.6750853101
10869625000.0	36.0123687562
10872250000.0	35.5129990324
10874875000.0	34.443055839
10877500000.0	35.4082426287
10880125000.0	36.1338654249
10882750000.0	35.984942816
10885375000.0	36.3305737705
10888000000.0	35.4684998513
10890625000.0	36.302799182
10893250000.0	35.3821321498
10895875000.0	36.2000764945
10898500000.0	34.5412453454
10901125000.0	34.8680181274
10903750000.0	36.759507411
10906375000.0	36.6273122692
10909000000.0	37.2441301502
10911625000.0	37.0693857935
10914250000.0	35.9336768845
10916875000.0	35.6103016834
10919500000.0	35.8267102907
10922125000.0	36.9959404191
10924750000.0	35.4025699096
10927375000.0	37.236787271
10930000000.0	36.2226537679
10932625000.0	37.0760030264
10935250000.0	36.4731622923
10937875000.0	35.6135390477
10940500000.0	37.5128052847
10943125000.0	35.8903384681
10945750000.0	37.0986980036
10948375000.0	37.1618133065
10951000000.0	37.137442949
10953625000.0	37.853134765
10956250000.0	36.7354247531
10958875000.0	36.867826171
10961500000.0	36.6883949413
10964125000.0	36.5217307223
10966750000.0	37.062790005
10969375000.0	37.383378795
10972000000.0	36.3750045267
10974625000.0	38.1125426113
10977250000.0	37.0278512045
10979875000.0	38.5030374716
10982500000.0	38.759199958
10985125000.0	35.7447450931
10987750000.0	39.0751859651
10990375000.0	37.4779134274
10993000000.0	38.2881298623
10995625000.0	37.0089100781
10998250000.0	38.0716850744
11000875000.0	38.4195821721
11003500000.0	38.791049777
11006125000.0	37.2918918513
11008750000.0	39.8163280704
11011375000.0	38.357816026
11014000000.0	39.4330046004
11016625000.0	39.7377264125
11019250000.0	38.7614026877
11021875000.0	38.1195418135
11024500000.0	39.7247813048
11027125000.0	39.5291202741
11029750000.0	39.9963114387
11032375000.0	38.7480586561
11035000000.0	40.7307359245
11037625000.0	39.4488135327
11040250000.0	40.5684588084
11042875000.0	38.1672333134
11045500000.0	38.9945649886
11048125000.0	39.6958032535
11050750000.0	38.7816935897
11053375000.0	40.0544826162
11056000000.0	41.45051295
11058625000.0	40.5037578582
11061250000.0	39.7741141605
11063875000.0	40.4889376835
11066500000.0	40.5266339384
11069125000.0	41.1520369239
11071750000.0	39.568668847
11074375000.0	39.8359568695
11077000000.0	39.9082743044
11079625000.0	40.3950372562
11082250000.0	40.6858983524
11084875000.0	40.9742064472
11087500000.0	41.8216234042
11090125000.0	39.4140852416
11092750000.0	40.1815115613
11095375000.0	39.7393209029
11098000000.0	40.3683883088
11100625000.0	42.5228911646
11103250000.0	41.6837751088
11105875000.0	39.2476235452
11108500000.0	41.3036811098
11111125000.0	41.2483711377
11113750000.0	39.9775179108
11116375000.0	41.6685496906
11119000000.0	40.4206254096
11121625000.0	41.0254406467
11124250000.0	40.9930590189
11126875000.0	40.5967753873
11129500000.0	41.8950544325
11132125000.0	41.5079085519
11134750000.0	40.3189161637
11137375000.0	39.7462731449
11140000000.0	41.1871598601
11142625000.0	41.6180904127
11145250000.0	40.8842919046
11147875000.0	40.6863503167
11150500000.0	40.1834648509
11153125000.0	41.6020788318
11155750000.0	41.035067008
11158375000.0	41.957935864
11161000000.0	42.2939795542
11163625000.0	42.9591526612
11166250000.0	40.7192688683
11168875000.0	41.2361807701
11171500000.0	42.3242884057
11174125000.0	41.7505474245
11176750000.0	42.2863028011
11179375000.0	43.7245347305
11182000000.0	42.514109795
11184625000.0	42.4497812114
11187250000.0	43.4704109418
11189875000.0	42.7672254354
11192500000.0	43.156184417
11195125000.0	43.1068892413
11197750000.0	43.1182393918
11200375000.0	42.668002766
11203000000.0	43.135757015
11205625000.0	43.5222474667
11208250000.0	45.9891472669
11210875000.0	42.4957718371
11213500000.0	43.8712094949
11216125000.0	43.182345646
11218750000.0	42.6755227025
11221375000.0	43.323269826
11224000000.0	42.9887968135
11226625000.0	43.1766961651
11229250000.0	43.1212938765
11231875000.0	42.8418038135
11234500000.0	42.7871526057
11237125000.0	44.4328565769
11239750000.0	44.4711053818
11242375000.0	42.8421712586
11245000000.0	43.7990413988
11247625000.0	43.9656896623
11250250000.0	44.3789224369
11252875000.0	44.6757837404
11255500000.0	44.112239656
11258125000.0	44.4012473727
11260750000.0	44.574510918
11263375000.0	44.6921042955
11266000000.0	43.3293856135
11268625000.0	44.5164211743
11271250000.0	44.1348211454
11273875000.0	43.9533924304
11276500000.0	44.0480758132
11279125000.0	42.6036700947
11281750000.0	42.4977191307
11284375000.0	42.9759265926
11287000000.0	43.0304199712
11289625000.0	43.9906580555
11292250000.0	43.1280322177
11294875000.0	42.9914789919
11297500000.0	45.3161554674
11300125000.0	44.8668551055
11302750000.0	43.9504987738
11305375000.0	44.878392626
11308000000.0	43.7709995243
11310625000.0	44.2101290163
11313250000.0	44.78747177
11315875000.0	44.5542015462
11318500000.0	45.6713619877
11321125000.0	44.9230800122
11323750000.0	45.2485429289
11326375000.0	45.4080086154
11329000000.0	44.6874319644
11331625000.0	44.9450412838
11334250000.0	45.6756756864
11336875000.0	45.1162268253
11339500000.0	45.4184619362
11342125000.0	44.8198313869
11344750000.0	45.3319379416
11347375000.0	44.4116344162
11350000000.0	45.6914951474
11352625000.0	45.4053815683
11355250000.0	45.6920930672
11357875000.0	45.8490606161
11360500000.0	44.8627811181
11363125000.0	45.925855803
11365750000.0	46.3094150485
11368375000.0	46.3045293405
11371000000.0	46.0168768116
11373625000.0	44.9632689723
11376250000.0	46.0860848522
11378875000.0	47.200542264
11381500000.0	46.5199389782
11384125000.0	47.2200792937
11386750000.0	46.4218123545
11389375000.0	47.3731248125
11392000000.0	47.1657254015
11394625000.0	46.7577487615
11397250000.0	47.3708386091
11399875000.0	46.3632969233
11402500000.0	46.7871041775
11405125000.0	45.6167121491
11407750000.0	47.1384543214
11410375000.0	45.2884362444
11413000000.0	47.6704600347
11415625000.0	46.6244651806
11418250000.0	46.7308481867
11420875000.0	45.8919748824
11423500000.0	46.0793515958
11426125000.0	46.1933563233
11428750000.0	46.0881010998
11431375000.0	45.4695663383
11434000000.0	46.6215661061
11436625000.0	46.4064508502
11439250000.0	46.1774872297
11441875000.0	45.5755729583
11444500000.0	44.9692883047
11447125000.0	45.8977554775
11449750000.0	46.4417674321
11452375000.0	46.2682289517
11455000000.0	46.4954559692
11457625000.0	45.8410530405
11460250000.0	46.4573838662
11462875000.0	46.0799163948
11465500000.0	47.4006112322
11468125000.0	46.8126304561
11470750000.0	46.0348871376
11473375000.0	45.6494451506
11476000000.0	46.5204972145
11478625000.0	46.2127275856
11481250000.0	46.8954694108
11483875000.0	47.8691994915
11486500000.0	45.9182021816
11489125000.0	46.5749024779
11491750000.0	46.772918756
11494375000.0	47.9537976316
11497000000.0	46.9416457212
11499625000.0	46.386753848
11502250000.0	47.3945453531
11504875000.0	46.6899131781
11507500000.0	48.3274178859
11510125000.0	48.5082559017
11512750000.0	47.0497611829
11515375000.0	47.322624013
11518000000.0	46.7407800261
11520625000.0	46.1414407373
11523250000.0	47.2640102585
11525875000.0	47.2682240052
11528500000.0	47.8047370425
11531125000.0	47.8458186308
11533750000.0	47.4627911691
11536375000.0	47.454641209
11539000000.0	48.067491799
11541625000.0	46.8979709971
11544250000.0	47.5068698287
11546875000.0	47.2887468245
11549500000.0	48.8259981088
11552125000.0	48.0726059153
11554750000.0	48.5482374087
11557375000.0	47.6585867663
11560000000.0	48.0585829723
11562625000.0	48.1544378712
11565250000.0	47.8736687517
11567875000.0	47.1726620261
11570500000.0	47.9056774772
11573125000.0	48.8022113468
11575750000.0	48.0786462626
11578375000.0	46.8586378152
11581000000.0	47.5477331023
11583625000.0	47.9977030622
11586250000.0	47.3991585583
11588875000.0	48.7168859988
11591500000.0	49.4430883077
11594125000.0	48.6740001715
11596750000.0	48.0448201841
11599375000.0	48.7814021561
11602000000.0	48.4807080444
11604625000.0	49.39029286
11607250000.0	48.6078222699
11609875000.0	50.0956472234
11612500000.0	47.8249352845
11615125000.0	48.4853200426
11617750000.0	48.4590897322
11620375000.0	48.1966994127
11623000000.0	48.6639933329
11625625000.0	50.1861529288
11628250000.0	49.0447895237
11630875000.0	48.52008856
11633500000.0	47.6796358189
11636125000.0	48.4465576262
11638750000.0	50.0747864447
11641375000.0	48.1557903607
11644000000.0	50.0939176508
11646625000.0	49.9231682455
11649250000.0	49.2828603655
11651875000.0	49.225807666
11654500000.0	49.2401342856
11657125000.0	49.5961550435
11659750000.0	48.4949442343
11662375000.0	49.2606354671
11665000000.0	49.2996181023
11667625000.0	49.2385652581
11670250000.0	49.7524743112
11672875000.0	50.5261256573
11675500000.0	49.4832319982
11678125000.0	50.290291834
11680750000.0	48.9329101333
11683375000.0	50.3526296116
11686000000.0	49.7681753464
11688625000.0	48.6031773685
11691250000.0	49.9779246033
11693875000.0	49.7975646969
11696500000.0	50.3059495761
11699125000.0	48.154545213
11701750000.0	50.0887621269
11704375000.0	49.4612741197
11707000000.0	50.313312765
11709625000.0	50.4109528544
11712250000.0	50.1622064356
11714875000.0	51.085651155
11717500000.0	50.6497053176
11720125000.0	49.912477137
11722750000.0	49.9418267352
11725375000.0	50.1540798379
11728000000.0	50.2717815093
11730625000.0	49.7935532665
11733250000.0	50.0479747711
11735875000.0	49.1166585673
11738500000.0	50.3812276558
11741125000.0	49.1940898925
11743750000.0	51.2634585456
11746375000.0	50.2736034077
11749000000.0	49.2176539658
11751625000.0	49.8878813921
11754250000.0	49.9509604894
11756875000.0	50.4457407684
11759500000.0	51.3318441107
11762125000.0	48.456500897
11764750000.0	49.5693889291
11767375000.0	49.1653750115
11770000000.0	49.6196194872
11772625000.0	50.3807940235
11775250000.0	49.859900843
11777875000.0	49.621906041
11780500000.0	49.7969493393
11783125000.0	50.3956632114
11785750000.0	49.8230014178
11788375000.0	50.0801171111
11791000000.0	50.1745833999
11793625000.0	49.7655500278
11796250000.0	50.6312255315
11798875000.0	50.2839519116
11801500000.0	50.7909411925
11804125000.0	50.1231681427
11806750000.0	49.4629295794
11809375000.0	50.3224932376
11812000000.0	50.5990929765
11814625000.0	50.9819413165
11817250000.0	51.7729454949
11819875000.0	51.6324740315
11822500000.0	51.0550321554
11825125000.0	51.2043627255
11827750000.0	50.5275549763
11830375000.0	51.1947002007
11833000000.0	51.7567428678
11835625000.0	51.6054192847
11838250000.0	51.6267908248
11840875000.0	51.5346798448
11843500000.0	51.4115346627
11846125000.0	52.6679424475
11848750000.0	51.0346276355
11851375000.0	51.7740713408
11854000000.0	52.0336866249
11856625000.0	52.0144404949
11859250000.0	51.3733452275
11861875000.0	51.6317177843
11864500000.0	50.9642541687
11867125000.0	51.4195964624
11869750000.0	51.0691171835
11872375000.0	52.4974998564
11875000000.0	51.3236021378
11877625000.0	52.3165244881
11880250000.0	51.3026968812
11882875000.0	51.7302302137
11885500000.0	52.7985232547
11888125000.0	51.5384926781
11890750000.0	52.1124754777
11893375000.0	51.8068898235
11896000000.0	51.2425226502
11898625000.0	51.5101329845
11901250000.0	52.6489554208
11903875000.0	53.1259635834
11906500000.0	52.6214408692
11909125000.0	51.857821584
11911750000.0	53.2257590787
11914375000.0	51.9576824639
11917000000.0	52.1114673834
11919625000.0	52.5984386808
11922250000.0	52.7569225044
11924875000.0	52.4357628885
11927500000.0	53.1010255104
11930125000.0	51.9206373375
11932750000.0	53.3772462694
11935375000.0	53.1556283817
11938000000.0	52.7291813749
11940625000.0	51.3663907435
11943250000.0	51.8970693742
11945875000.0	53.2891391637
11948500000.0	52.4810194534
11951125000.0	52.452469871
11953750000.0	53.7599205235
11956375000.0	52.0898098793
11959000000.0	51.8611151312
11961625000.0	53.181291405
11964250000.0	51.7006049138
11966875000.0	52.7232666186
11969500000.0	53.3621342743
11972125000.0	52.2185813339
11974750000.0	52.4753267523
11977375000.0	52.6084274844
11980000000.0	52.8259812484
11982625000.0	53.3981253019
11985250000.0	53.0856565555
11987875000.0	52.6500578395
11990500000.0	53.4764295864
11993125000.0	53.4389730858
11995750000.0	54.1944618803
11998375000.0	53.4219766474
12001000000.0	53.2775643838
12003625000.0	53.4702310145
12006250000.0	53.8283931444
12008875000.0	55.1402396214
12011500000.0	54.2262508896
12014125000.0	52.8922764634
12016750000.0	54.397984709
12019375000.0	54.0593082838
12022000000.0	54.4579264516
12024625000.0	53.8913037732
12027250000.0	54.650595937
12029875000.0	55.5465014495
12032500000.0	54.3502089203
12035125000.0	55.5958950487
12037750000.0	54.6056314594
12040375000.0	53.550368776
12043000000.0	55.5648093167
12045625000.0	54.5558566907
12048250000.0	55.5250435543
12050875000.0	55.6332221651
12053500000.0	55.2214376881
12056125000.0	54.6274466457
12058750000.0	54.7356901347
12061375000.0	54.3994952974
12064000000.0	54.9750498767
12066625000.0	55.5675699153
12069250000.0	54.9058633659
12071875000.0	55.213587777
12074500000.0	55.912064404
12077125000.0	55.841317663
12079750000.0	55.3247868137
12082375000.0	54.8294376508
12085000000.0	54.5372747698
12087625000.0	55.6620376189
12090250000.0	55.9285133631
12092875000.0	55.1065386388
12095500000.0	56.0032199372
12098125000.0	55.5539951043
12100750000.0	55.6679826718
12103375000.0	55.7094823495
12106000000.0	54.730953278
12108625000.0	55.9308237935
12111250000.0	56.2551672546
12113875000.0	57.3837480282
12116500000.0	56.2083950932
12119125000.0	56.6713592115
12121750000.0	56.4474531212
12124375000.0	55.5512612331
12127000000.0	56.0679718608
12129625000.0	56.6228228317
12132250000.0	56.7490776
12134875000.0	57.2063886412
12137500000.0	57.0953392119
12140125000.0	57.6870377936
12142750000.0	56.1606285609
12145375000.0	57.8947125559
12148000000.0	56.861156573
12150625000.0	56.6801132211
12153250000.0	57.515717616
12155875000.0	56.3643417977
12158500000.0	56.7057000903
12161125000.0	57.5244401469
12163750000.0	57.1370999344
12166375000.0	57.6621819971
12169000000.0	56.9764944485
12171625000.0	57.8963869358
12174250000.0	57.6071100753
12176875000.0	57.530206115
12179500000.0	56.4213923477
12182125000.0	56.8890616462
12184750000.0	57.988361227
12187375000.0	58.6247251167
12190000000.0	58.5891871894
12192625000.0	57.1219977891
12195250000.0	57.7532196065
12197875000.0	57.8721436133
12200500000.0	57.7000948689
12203125000.0	57.9389227822
12205750000.0	57.595558708
12208375000.0	58.007577916
12211000000.0	57.190613263
12213625000.0	57.4203974608
12216250000.0	58.1472792214
12218875000.0	57.5151260698
12221500000.0	58.3406830037
12224125000.0	58.1452856001
12226750000.0	58.4355162905
12229375000.0	58.3880215368
12232000000.0	59.1427030573
12234625000.0	58.6773484848
12237250000.0	57.9033633599
12239875000.0	58.3527544529
12242500000.0	59.1231258065
12245125000.0	59.7369698623
12247750000.0	59.2732193299
12250375000.0	58.9046270778
12253000000.0	59.5188964066
12255625000.0	58.8686717141
12258250000.0	58.3319654102
12260875000.0	58.6212306377
12263500000.0	60.4896003215
12266125000.0	60.3115595119
12268750000.0	58.743508976
12271375000.0	59.9741606216
12274000000.0	58.770359697
12276625000.0	58.158781033
12279250000.0	59.9169060991
12281875000.0	58.5218376957
12284500000.0	58.9178482618
12287125000.0	58.9680266306
12289750000.0	59.6284838923
12292375000.0	59.6975438259
12295000000.0	59.2918938322
12297625000.0	60.079362421
12300250000.0	60.2413941961
12302875000.0	59.2407364372
12305500000.0	60.2839407237
12308125000.0	59.6572184601
12310750000.0	59.8449889225
12313375000.0	60.4659783289
12316000000.0	59.8421048451
12318625000.0	60.2444248007
12321250000.0	60.6291932627
12323875000.0	60.6532700513
12326500000.0	60.9251777677
12329125000.0	61.1991654356
12331750000.0	60.0534942359
12334375000.0	60.2154571084
12337000000.0	59.9507835096
12339625000.0	59.8528433674
12342250000.0	60.9927908857
12344875000.0	59.6700047361
12347500000.0	60.7965308321
12350125000.0	61.4572070026
12352750000.0	60.0079955069
12355375000.0	60.835347864
12358000000.0	61.1939260605
12360625000.0	61.8885661829
12363250000.0	60.635744234
12365875000.0	59.9446208345
12368500000.0	60.0170293176
12371125000.0	60.8411044185
12373750000.0	60.5699454004
12376375000.0	60.4897042796
12379000000.0	60.7135127333
12381625000.0	60.7645338421
12384250000.0	61.9139101161
12386875000.0	60.5970663676
12389500000.0	60.5899768668
12392125000.0	61.0792022955
12394750000.0	61.4385446998
12397375000.0	61.4240891591
12400000000.0	60.6063064185
