Freq(Hz)	RL(%)
8202625000.0	85.3735622399
8205250000.0	85.5361729001
8207875000.0	86.3095062052
8210500000.0	86.2623235767
8213125000.0	85.7295360419
8215750000.0	85.7904848076
8218375000.0	87.2642846172
8221000000.0	85.9211931567
8223625000.0	85.8924260996
8226250000.0	86.4804024211
8228875000.0	85.8735094454
8231500000.0	85.9781801517
8234125000.0	85.2486474604
8236750000.0	85.7815009818
8239375000.0	84.9099001573
8242000000.0	83.7711395418
8244625000.0	86.8143957466
8247250000.0	87.1887230886
8249875000.0	86.203172758
8252500000.0	86.6903243005
8255125000.0	85.7700910157
8257750000.0	85.8680145878
8260375000.0	86.9993904624
8263000000.0	87.2952351258
8265625000.0	87.86826379
8268250000.0	86.2208387139
8270875000.0	86.5022639097
8273500000.0	86.6714450404
8276125000.0	86.9089199635
8278750000.0	86.1711048141
8281375000.0	87.5881828032
8284000000.0	86.0202247961
8286625000.0	88.0279078226
8289250000.0	86.030694116
8291875000.0	87.0990545923
8294500000.0	85.5056007245
8297125000.0	86.5775273835
8299750000.0	88.8026124757
8302375000.0	87.0660199129
8305000000.0	86.5425181485
8307625000.0	87.5007991957
8310250000.0	88.2698008086
8312875000.0	89.3692973281
8315500000.0	88.5860017062
8318125000.0	87.0536230558
8320750000.0	86.1025306162
8323375000.0	86.9350219667
8326000000.0	86.0470800666
8328625000.0	89.1854741778
8331250000.0	89.0849306283
8333875000.0	87.9968074049
8336500000.0	86.6167734813
8339125000.0	85.5158109585
8341750000.0	86.2350793139
8344375000.0	86.7735687573
8347000000.0	86.2998994792
8349625000.0	87.8271484167
8352250000.0	85.5116499716
8354875000.0	87.4197642478
8357500000.0	85.0890899105
8360125000.0	87.3497456213
8362750000.0	86.5579666451
8365375000.0	87.4379285837
8368000000.0	85.2804089693
8370625000.0	87.9374024034
8373250000.0	88.0483018499
8375875000.0	86.2884629558
8378500000.0	88.0630346319
8381125000.0	84.4329870934
8383750000.0	87.8082035782
8386375000.0	86.9182165816
8389000000.0	87.4612598813
8391625000.0	85.4876010187
8394250000.0	87.369994603
8396875000.0	85.6993058726
8399500000.0	87.8686992093
8402125000.0	87.7849596734
8404750000.0	86.7204396294
8407375000.0	88.5098820589
8410000000.0	86.7255180065
8412625000.0	88.9056380864
8415250000.0	87.8443941791
8417875000.0	88.5294825969
8420500000.0	88.3626310711
8423125000.0	88.9099890982
8425750000.0	88.5718878699
8428375000.0	91.006592901
8431000000.0	86.852721089
8433625000.0	89.6796302259
8436250000.0	90.9231033864
8438875000.0	88.5568801833
8441500000.0	88.5133232755
8444125000.0	88.3703264034
8446750000.0	87.0024394216
8449375000.0	89.0499718789
8452000000.0	88.424168731
8454625000.0	90.2024521123
8457250000.0	87.9750700311
8459875000.0	88.9146599778
8462500000.0	90.3752401507
8465125000.0	88.4424218648
8467750000.0	90.5515791536
8470375000.0	87.0705215966
8473000000.0	88.4963791431
8475625000.0	88.2417499385
8478250000.0	87.4482554858
8480875000.0	88.0487164982
8483500000.0	88.1403035911
8486125000.0	87.4962633408
8488750000.0	87.3906016253
8491375000.0	85.6460596498
8494000000.0	88.7078022261
8496625000.0	86.2886502064
8499250000.0	86.7573874441
8501875000.0	85.5745386176
8504500000.0	88.3891751004
8507125000.0	86.9730589826
8509750000.0	87.8463773564
8512375000.0	86.1678337333
8515000000.0	87.996128466
8517625000.0	85.3806950857
8520250000.0	86.0784718315
8522875000.0	88.0036913634
8525500000.0	83.6618276793
8528125000.0	86.604177394
8530750000.0	87.2148321676
8533375000.0	87.8895162087
8536000000.0	86.4781049196
8538625000.0	88.2565677079
8541250000.0	88.5351919533
8543875000.0	85.5798487872
8546500000.0	85.51436813
8549125000.0	86.7034515823
8551750000.0	86.4420206505
8554375000.0	87.513160207
8557000000.0	86.4125367998
8559625000.0	85.5041883526
8562250000.0	88.2764191461
8564875000.0	86.3369036675
8567500000.0	88.9848310639
8570125000.0	88.8071798991
8572750000.0	87.0084075893
8575375000.0	84.0222445931
8578000000.0	87.7207770292
8580625000.0	89.322688892
8583250000.0	85.9251553361
8585875000.0	86.9396459415
8588500000.0	86.9888343644
8591125000.0	87.1743841009
8593750000.0	86.5886101521
8596375000.0	88.8040119031
8599000000.0	84.9296160686
8601625000.0	87.4567141121
8604250000.0	85.1487253518
8606875000.0	88.4031746309
8609500000.0	86.3010490244
8612125000.0	84.2222626703
8614750000.0	86.1763100555
8617375000.0	87.5520530814
8620000000.0	86.0048891837
8622625000.0	84.2871482168
8625250000.0	86.3154578588
8627875000.0	85.1150414801
8630500000.0	85.6934059334
8633125000.0	84.7789297679
8635750000.0	88.254078368
8638375000.0	88.0062079528
8641000000.0	85.7392241556
8643625000.0	83.2812312828
8646250000.0	87.334499064
8648875000.0	83.6974980227
8651500000.0	83.3125488371
8654125000.0	86.866306242
8656750000.0	85.4115745272
8659375000.0	85.4475606269
8662000000.0	85.7501471172
8664625000.0	86.1715664933
8667250000.0	85.844531687
8669875000.0	85.3150643283
8672500000.0	84.8212547159
8675125000.0	86.2236009325
8677750000.0	86.3018347989
8680375000.0	86.7720859809
8683000000.0	84.1154923833
8685625000.0	84.9466347889
8688250000.0	85.8978862923
8690875000.0	86.76030816
8693500000.0	86.0422404607
8696125000.0	85.6394127338
8698750000.0	85.9700676115
8701375000.0	84.9027555635
8704000000.0	86.4226724166
8706625000.0	84.9816057601
8709250000.0	85.8233216951
8711875000.0	86.960325478
8714500000.0	87.3768107714
8717125000.0	86.7874384861
8719750000.0	83.578368687
8722375000.0	85.1694957051
8725000000.0	84.9825033333
8727625000.0	84.6672062596
8730250000.0	85.2019942553
8732875000.0	84.2901005288
8735500000.0	83.1338300191
8738125000.0	83.6746800385
8740750000.0	83.6552829939
8743375000.0	83.6700061649
8746000000.0	83.7153679885
8748625000.0	83.9715726655
8751250000.0	83.2916404639
8753875000.0	85.1521314956
8756500000.0	82.0127138664
8759125000.0	83.5256755352
8761750000.0	83.1685948196
8764375000.0	82.1331635253
8767000000.0	82.1400318472
8769625000.0	85.0467614395
8772250000.0	83.5259171369
8774875000.0	82.6076370701
8777500000.0	84.0573828477
8780125000.0	83.7034370216
8782750000.0	83.7018687373
8785375000.0	84.6492739512
8788000000.0	81.9997648205
8790625000.0	83.7862019686
8793250000.0	82.7053560217
8795875000.0	83.0868336771
8798500000.0	83.1852953381
8801125000.0	83.1405714614
8803750000.0	80.4567800264
8806375000.0	85.352494646
8809000000.0	82.2043992629
8811625000.0	82.9581348592
8814250000.0	84.5546766449
8816875000.0	81.6015382261
8819500000.0	83.4630519931
8822125000.0	83.2445580898
8824750000.0	82.3581769764
8827375000.0	82.299041334
8830000000.0	82.7403149306
8832625000.0	82.2323167563
8835250000.0	83.8688435247
8837875000.0	81.6624569154
8840500000.0	80.9682562681
8843125000.0	80.5498900467
8845750000.0	82.6555378459
8848375000.0	80.7319249813
8851000000.0	82.5548660559
8853625000.0	81.7265317525
8856250000.0	81.4781095633
8858875000.0	81.1179011776
8861500000.0	81.1347588066
8864125000.0	81.0311328357
8866750000.0	80.6522078493
8869375000.0	80.3799918206
8872000000.0	78.7474083365
8874625000.0	81.5459110433
8877250000.0	78.5045901425
8879875000.0	79.2197327888
8882500000.0	79.7649362797
8885125000.0	80.068363791
8887750000.0	77.8831973137
8890375000.0	80.3761612916
8893000000.0	79.1725469872
8895625000.0	78.960419068
8898250000.0	79.2978765752
8900875000.0	77.9402669867
8903500000.0	76.6077973679
8906125000.0	79.2048571157
8908750000.0	78.5311611273
8911375000.0	79.2295026797
8914000000.0	76.3329229242
8916625000.0	78.2743296463
8919250000.0	77.234856343
8921875000.0	78.9584871715
8924500000.0	77.7987372903
8927125000.0	76.8222738955
8929750000.0	79.5028411155
8932375000.0	78.8112139059
8935000000.0	79.0296383444
8937625000.0	78.5109296693
8940250000.0	77.2868467852
8942875000.0	77.2730436339
8945500000.0	78.5965811538
8948125000.0	77.5835879232
8950750000.0	77.4234379932
8953375000.0	79.1041681792
8956000000.0	78.4728954294
8958625000.0	76.3869924726
8961250000.0	77.7693315282
8963875000.0	79.3112716704
8966500000.0	77.5663789001
8969125000.0	77.3711772288
8971750000.0	78.4651877619
8974375000.0	76.9137864401
8977000000.0	77.8693717813
8979625000.0	78.0882695007
8982250000.0	75.5366080967
8984875000.0	74.1462220844
8987500000.0	75.5584122404
8990125000.0	76.0444493074
8992750000.0	74.8821050031
8995375000.0	78.7499650508
8998000000.0	74.1783133975
9000625000.0	74.3373848655
9003250000.0	74.6979333701
9005875000.0	75.2370199724
9008500000.0	72.8836091503
9011125000.0	76.8739800951
9013750000.0	72.5040245392
9016375000.0	73.5610170861
9019000000.0	75.6286869625
9021625000.0	73.8883331744
9024250000.0	75.0508970355
9026875000.0	76.4162290317
9029500000.0	75.1532355463
9032125000.0	73.1822961217
9034750000.0	72.9742125411
9037375000.0	75.0536688163
9040000000.0	73.9819411591
9042625000.0	74.7317012449
9045250000.0	74.0183896908
9047875000.0	73.6146141999
9050500000.0	73.33708898
9053125000.0	74.0773838548
9055750000.0	74.2928514933
9058375000.0	74.2380328887
9061000000.0	75.2167223671
9063625000.0	74.8672169838
9066250000.0	74.5569781871
9068875000.0	75.0363409556
9071500000.0	74.1969567352
9074125000.0	73.8523932347
9076750000.0	74.9970580074
9079375000.0	74.9560966355
9082000000.0	75.671361468
9084625000.0	74.8013813322
9087250000.0	76.3321871933
9089875000.0	74.4844790355
9092500000.0	75.6464124472
9095125000.0	74.5449848068
9097750000.0	74.7025930176
9100375000.0	73.529088066
9103000000.0	74.932564228
9105625000.0	73.484130884
9108250000.0	75.6389434895
9110875000.0	74.2293623152
9113500000.0	73.1441332944
9116125000.0	75.2680132504
9118750000.0	75.3264321012
9121375000.0	76.7533600014
9124000000.0	73.6601977413
9126625000.0	75.2145997626
9129250000.0	74.379297719
9131875000.0	76.3446278821
9134500000.0	73.9872380611
9137125000.0	74.3349781454
9139750000.0	73.8368330367
9142375000.0	75.9008921689
9145000000.0	73.3055356439
9147625000.0	73.6750656321
9150250000.0	76.215139969
9152875000.0	73.2412551211
9155500000.0	74.4470351768
9158125000.0	74.7919068879
9160750000.0	74.9477277748
9163375000.0	77.034363353
9166000000.0	75.763925905
9168625000.0	75.532171723
9171250000.0	74.9090340257
9173875000.0	74.6201567308
9176500000.0	74.198215476
9179125000.0	75.4824182926
9181750000.0	72.6940543718
9184375000.0	74.7435862448
9187000000.0	75.9098284933
9189625000.0	75.3631913282
9192250000.0	75.2801754998
9194875000.0	75.2119579895
9197500000.0	75.2764718499
9200125000.0	73.9058357586
9202750000.0	74.8400847788
9205375000.0	74.9641948397
9208000000.0	73.027876111
9210625000.0	74.3759442722
9213250000.0	74.0946224761
9215875000.0	73.7807444736
9218500000.0	75.6671231695
9221125000.0	74.0888662601
9223750000.0	74.880347484
9226375000.0	75.8162173731
9229000000.0	75.4387043661
9231625000.0	73.3917552994
9234250000.0	73.7071143454
9236875000.0	77.0104306499
9239500000.0	74.7879497055
9242125000.0	73.7050582956
9244750000.0	76.8142095565
9247375000.0	74.3745322885
9250000000.0	75.3669260991
9252625000.0	75.8336991379
9255250000.0	75.4002047505
9257875000.0	75.3088225387
9260500000.0	74.3356261116
9263125000.0	75.2538928614
9265750000.0	74.635816641
9268375000.0	74.0548305566
9271000000.0	75.6195343484
9273625000.0	74.5179954779
9276250000.0	74.1211386318
9278875000.0	75.2824689909
9281500000.0	74.6920064129
9284125000.0	75.0411687752
9286750000.0	74.875046339
9289375000.0	76.9743369044
9292000000.0	74.2777123261
9294625000.0	72.3584528394
9297250000.0	73.5241354756
9299875000.0	74.5410260351
9302500000.0	73.2889796685
9305125000.0	73.9578865104
9307750000.0	75.1695310065
9310375000.0	76.4677532822
9313000000.0	73.7383648494
9315625000.0	73.5959462334
9318250000.0	75.7288036241
9320875000.0	76.9143185896
9323500000.0	75.2074044606
9326125000.0	75.4758067539
9328750000.0	75.2319052249
9331375000.0	74.178670419
9334000000.0	74.0945741825
9336625000.0	74.7563439721
9339250000.0	73.7835190191
9341875000.0	74.0336061125
9344500000.0	75.4977896207
9347125000.0	74.7944818654
9349750000.0	76.0617085211
9352375000.0	73.805932513
9355000000.0	74.6592718489
9357625000.0	76.1559188974
9360250000.0	75.8844937956
9362875000.0	75.0828692766
9365500000.0	74.6266405364
9368125000.0	77.04790021
9370750000.0	73.9670812355
9373375000.0	76.4560452033
9376000000.0	74.2210774431
9378625000.0	76.1117759995
9381250000.0	76.0508822837
9383875000.0	75.2697492331
9386500000.0	74.8829207764
9389125000.0	75.5219321622
9391750000.0	73.2838159248
9394375000.0	75.7062029738
9397000000.0	75.0286231709
9399625000.0	75.0828447443
9402250000.0	75.8931276672
9404875000.0	72.967229412
9407500000.0	74.3250069056
9410125000.0	75.3404226512
9412750000.0	74.6787736652
9415375000.0	75.6170478583
9418000000.0	73.7444519489
9420625000.0	75.2711652233
9423250000.0	73.7644230957
9425875000.0	73.9351996516
9428500000.0	74.5718925558
9431125000.0	74.3241431854
9433750000.0	71.7262234522
9436375000.0	73.689299236
9439000000.0	74.3226777596
9441625000.0	71.6424921595
9444250000.0	76.3884811384
9446875000.0	74.7555930713
9449500000.0	74.6338866604
9452125000.0	72.7535911304
9454750000.0	72.6295639402
9457375000.0	74.4904075895
9460000000.0	74.5031287503
9462625000.0	75.0133004538
9465250000.0	72.7218339872
9467875000.0	75.3842885559
9470500000.0	72.4259696874
9473125000.0	75.6511409926
9475750000.0	73.6745453253
9478375000.0	73.9332109827
9481000000.0	74.4189605424
9483625000.0	74.7611989199
9486250000.0	74.8527727933
9488875000.0	74.0815575698
9491500000.0	76.0727680568
9494125000.0	72.8803525863
9496750000.0	73.8212836285
9499375000.0	74.662833106
9502000000.0	72.8687143481
9504625000.0	73.2228007315
9507250000.0	73.0659055901
9509875000.0	75.3979813924
9512500000.0	76.1392026877
9515125000.0	74.8828543162
9517750000.0	71.8088305254
9520375000.0	72.4703822153
9523000000.0	73.2294272333
9525625000.0	74.7575859813
9528250000.0	73.7330281131
9530875000.0	73.8152836236
9533500000.0	73.1949452373
9536125000.0	70.1959915282
9538750000.0	72.9347970163
9541375000.0	73.2732654463
9544000000.0	72.1855466911
9546625000.0	76.9678653629
9549250000.0	71.2268076641
9551875000.0	71.7000026312
9554500000.0	73.1805513233
9557125000.0	71.3602889063
9559750000.0	72.2402534119
9562375000.0	73.5883193358
9565000000.0	72.2425384763
9567625000.0	70.9917799703
9570250000.0	71.3647960886
9572875000.0	71.4739170306
9575500000.0	69.9216551743
9578125000.0	69.4004232691
9580750000.0	70.4481501318
9583375000.0	72.1682110399
9586000000.0	72.0895744165
9588625000.0	71.4889966758
9591250000.0	69.6899653883
9593875000.0	68.6124873564
9596500000.0	70.2268927903
9599125000.0	70.7955257882
9601750000.0	69.1878235867
9604375000.0	68.4873304107
9607000000.0	69.4482776819
9609625000.0	70.5530603484
9612250000.0	70.8259379739
9614875000.0	70.3243217849
9617500000.0	72.0769608548
9620125000.0	69.0102033746
9622750000.0	72.1544648585
9625375000.0	70.0553035716
9628000000.0	68.9440251964
9630625000.0	69.8915819836
9633250000.0	66.8081808289
9635875000.0	71.406046915
9638500000.0	70.7134648875
9641125000.0	68.9301544921
9643750000.0	71.8154495952
9646375000.0	70.3714027046
9649000000.0	69.8817231165
9651625000.0	69.9005185868
9654250000.0	69.1952742426
9656875000.0	71.0529072684
9659500000.0	69.6203733543
9662125000.0	69.3915249609
9664750000.0	69.7621299185
9667375000.0	69.9862288637
9670000000.0	66.7401144255
9672625000.0	68.6677411269
9675250000.0	70.238579299
9677875000.0	68.4177368845
9680500000.0	66.8512486409
9683125000.0	68.4596451429
9685750000.0	66.8428042884
9688375000.0	68.1465287
9691000000.0	68.1116171293
9693625000.0	66.1578515428
9696250000.0	68.8061045234
9698875000.0	67.2319256178
9701500000.0	67.319391922
9704125000.0	66.6482836707
9706750000.0	66.136534314
9709375000.0	69.2288033801
9712000000.0	66.2243048465
9714625000.0	68.5883134314
9717250000.0	68.0847191416
9719875000.0	69.2512576346
9722500000.0	66.5923535052
9725125000.0	67.2094206719
9727750000.0	68.0359041964
9730375000.0	67.280709432
9733000000.0	69.7300339765
9735625000.0	68.5438116078
9738250000.0	66.9816498942
9740875000.0	66.9113289262
9743500000.0	63.8441576458
9746125000.0	68.7538313238
9748750000.0	67.1310897801
9751375000.0	68.0963944556
9754000000.0	67.8005606636
9756625000.0	67.0035381122
9759250000.0	67.7126292158
9761875000.0	65.5234547657
9764500000.0	64.9613282665
9767125000.0	67.1238025079
9769750000.0	66.6981562658
9772375000.0	65.5065818829
9775000000.0	68.3176283822
9777625000.0	67.8202080222
9780250000.0	67.8974253113
9782875000.0	67.6972089029
9785500000.0	66.0454909747
9788125000.0	66.3382002093
9790750000.0	66.59435967
9793375000.0	68.6192506718
9796000000.0	66.8324561067
9798625000.0	64.0188615618
9801250000.0	66.1647319569
9803875000.0	66.6167443443
9806500000.0	66.8723390363
9809125000.0	66.7882536438
9811750000.0	66.4051302122
9814375000.0	66.1700430626
9817000000.0	67.0856543766
9819625000.0	64.0522056121
9822250000.0	64.3043497231
9824875000.0	65.5619672296
9827500000.0	64.6925360961
9830125000.0	64.2004210859
9832750000.0	65.2075490756
9835375000.0	64.135263714
9838000000.0	64.4064527624
9840625000.0	65.0801677464
9843250000.0	64.522187423
9845875000.0	63.7620754914
9848500000.0	64.1412854633
9851125000.0	64.4209092008
9853750000.0	64.6680411194
9856375000.0	64.6979513636
9859000000.0	63.4973797567
9861625000.0	65.1659728829
9864250000.0	64.4166113116
9866875000.0	63.8381004796
9869500000.0	64.3300576754
9872125000.0	63.7683432729
9874750000.0	64.7183608373
9877375000.0	63.8583679903
9880000000.0	64.8224513321
9882625000.0	66.3610807479
9885250000.0	65.0239320788
9887875000.0	63.3078332005
9890500000.0	64.7630104553
9893125000.0	64.6945659136
9895750000.0	64.043619873
9898375000.0	64.966486399
9901000000.0	64.1857233732
9903625000.0	62.7639052197
9906250000.0	62.5121095606
9908875000.0	64.0094946888
9911500000.0	64.6956763789
9914125000.0	65.43495574
9916750000.0	64.2398077058
9919375000.0	64.6075875058
9922000000.0	63.9896024989
9924625000.0	65.6175839793
9927250000.0	65.0075604523
9929875000.0	63.8487704244
9932500000.0	63.6827463494
9935125000.0	61.2236475213
9937750000.0	64.6799690358
9940375000.0	63.5145145078
9943000000.0	63.4456991473
9945625000.0	64.6330554513
9948250000.0	62.9431736856
9950875000.0	64.5460062167
9953500000.0	64.336931419
9956125000.0	63.9320013261
9958750000.0	63.0760211586
9961375000.0	62.7723083539
9964000000.0	62.2419692137
9966625000.0	62.8620305494
9969250000.0	64.2726288925
9971875000.0	64.0802341474
9974500000.0	64.5125689902
9977125000.0	64.5163519902
9979750000.0	64.769468665
9982375000.0	62.6947957359
9985000000.0	63.4899298451
9987625000.0	64.0976116157
9990250000.0	63.1577676048
9992875000.0	62.4497332175
9995500000.0	63.4984084914
9998125000.0	62.3371191613
10000750000.0	61.3933096355
10003375000.0	63.8032586413
10006000000.0	63.8289098722
10008625000.0	62.5826521132
10011250000.0	62.0192609336
10013875000.0	62.4863192965
10016500000.0	62.5747890013
10019125000.0	61.4029703385
10021750000.0	62.9088661187
10024375000.0	63.9623023249
10027000000.0	61.7981076716
10029625000.0	63.4878931222
10032250000.0	64.280273411
10034875000.0	63.3085069595
10037500000.0	63.4183241927
10040125000.0	62.2972858547
10042750000.0	62.7973615895
10045375000.0	63.2272585545
10048000000.0	62.5396285041
10050625000.0	62.5648656671
10053250000.0	62.3894031274
10055875000.0	63.6423569333
10058500000.0	63.09203029
10061125000.0	63.021346592
10063750000.0	62.3532282987
10066375000.0	63.3962303033
10069000000.0	62.8829549861
10071625000.0	63.1637856478
10074250000.0	63.3295561274
10076875000.0	64.0622873737
10079500000.0	63.1465737083
10082125000.0	64.0310659472
10084750000.0	59.9730314217
10087375000.0	62.2578345751
10090000000.0	61.7124760615
10092625000.0	62.5683831834
10095250000.0	61.3076297474
10097875000.0	60.9299262214
10100500000.0	62.44831112
10103125000.0	60.986903957
10105750000.0	61.0535668315
10108375000.0	62.590613607
10111000000.0	61.5367925165
10113625000.0	62.5119178205
10116250000.0	61.6627263039
10118875000.0	61.1195386825
10121500000.0	60.3269179599
10124125000.0	61.1042295188
10126750000.0	61.7017669563
10129375000.0	59.2749420648
10132000000.0	60.4488621699
10134625000.0	61.525468995
10137250000.0	61.6792451397
10139875000.0	60.6313126773
10142500000.0	61.506486286
10145125000.0	60.7920785549
10147750000.0	60.3853557085
10150375000.0	61.2844170351
10153000000.0	59.998399814
10155625000.0	60.5883225305
10158250000.0	60.072912875
10160875000.0	63.1832943733
10163500000.0	60.187777208
10166125000.0	60.5364513093
10168750000.0	61.8273936786
10171375000.0	60.3968804606
10174000000.0	61.8075752886
10176625000.0	61.2375045489
10179250000.0	60.0041008134
10181875000.0	60.8441513897
10184500000.0	61.9589659058
10187125000.0	61.1359057061
10189750000.0	60.0934842308
10192375000.0	62.3596734697
10195000000.0	61.3495359776
10197625000.0	59.3615227872
10200250000.0	60.1203591475
10202875000.0	62.7047765157
10205500000.0	59.8800011862
10208125000.0	60.0222903132
10210750000.0	60.9455499599
10213375000.0	60.3655450461
10216000000.0	60.0149631889
10218625000.0	61.9072369484
10221250000.0	61.0989022921
10223875000.0	60.5847444681
10226500000.0	61.5281445544
10229125000.0	61.0860530324
10231750000.0	60.8579237222
10234375000.0	60.3900907597
10237000000.0	62.5111203899
10239625000.0	61.9951120503
10242250000.0	59.1466095762
10244875000.0	60.442699137
10247500000.0	60.8082839978
10250125000.0	59.1564706543
10252750000.0	59.8868014847
10255375000.0	60.5060539195
10258000000.0	61.0435963812
10260625000.0	59.263621307
10263250000.0	59.6375982546
10265875000.0	61.2979610784
10268500000.0	61.7099004291
10271125000.0	59.0899401618
10273750000.0	58.2583873757
10276375000.0	58.8326278009
10279000000.0	59.5448851268
10281625000.0	60.2690297073
10284250000.0	59.6226777406
10286875000.0	59.4140816832
10289500000.0	59.5819344614
10292125000.0	60.1257424801
10294750000.0	58.2289247544
10297375000.0	57.1141122722
10300000000.0	59.5727952541
10302625000.0	58.3977399295
10305250000.0	59.1530942887
10307875000.0	59.5559399566
10310500000.0	58.8373187919
10313125000.0	59.3504307148
10315750000.0	57.6083456999
10318375000.0	60.8446484598
10321000000.0	60.4042956022
10323625000.0	59.7342180004
10326250000.0	56.8806466913
10328875000.0	60.017626906
10331500000.0	59.6492179625
10334125000.0	59.8934192573
10336750000.0	57.6296926059
10339375000.0	59.301133248
10342000000.0	57.888020482
10344625000.0	60.7694320112
10347250000.0	58.4635491708
10349875000.0	58.9127672418
10352500000.0	59.0980979496
10355125000.0	59.4758172667
10357750000.0	57.4324852407
10360375000.0	61.1145213522
10363000000.0	59.9936624921
10365625000.0	58.778256788
10368250000.0	60.9366049077
10370875000.0	58.7036190956
10373500000.0	56.3632026138
10376125000.0	57.2887065011
10378750000.0	56.4041803039
10381375000.0	57.3173639512
10384000000.0	58.2866376838
10386625000.0	56.7338711554
10389250000.0	58.9883806574
10391875000.0	58.7206277345
10394500000.0	57.8984228768
10397125000.0	59.7588739881
10399750000.0	59.4776755482
10402375000.0	59.0385500995
10405000000.0	58.9330011874
10407625000.0	59.3472315054
10410250000.0	59.1656458642
10412875000.0	57.3997812829
10415500000.0	58.0803117035
10418125000.0	59.0454583825
10420750000.0	58.1456221931
10423375000.0	58.7750171464
10426000000.0	59.4904922269
10428625000.0	57.3010881973
10431250000.0	59.0007163393
10433875000.0	58.3966312724
10436500000.0	57.1480733565
10439125000.0	57.0756998745
10441750000.0	58.8061172491
10444375000.0	57.1958674763
10447000000.0	57.0220853099
10449625000.0	55.6756184442
10452250000.0	58.1409602755
10454875000.0	57.9036296364
10457500000.0	58.3643248992
10460125000.0	57.2367244603
10462750000.0	57.3358651865
10465375000.0	56.5177419006
10468000000.0	56.1447223244
10470625000.0	56.5167657955
10473250000.0	55.451381093
10475875000.0	57.2027162864
10478500000.0	54.0018002457
10481125000.0	56.7645582629
10483750000.0	55.2381897215
10486375000.0	56.8779022732
10489000000.0	56.1721127154
10491625000.0	54.6162922521
10494250000.0	55.1467153635
10496875000.0	56.0524942652
10499500000.0	54.9447416533
10502125000.0	53.3894741669
10504750000.0	54.6414018322
10507375000.0	54.5445857986
10510000000.0	54.637204102
10512625000.0	54.5301934704
10515250000.0	55.9735818037
10517875000.0	57.6973690959
10520500000.0	55.7494533214
10523125000.0	53.9836619229
10525750000.0	54.7649859026
10528375000.0	55.2700597478
10531000000.0	55.9441113223
10533625000.0	54.0092346565
10536250000.0	54.5272688601
10538875000.0	54.3190042241
10541500000.0	54.8941095471
10544125000.0	55.2363072277
10546750000.0	54.3070945766
10549375000.0	53.4190835218
10552000000.0	53.957476595
10554625000.0	54.5758113809
10557250000.0	54.4308244339
10559875000.0	54.9864097526
10562500000.0	53.8981013271
10565125000.0	55.8216393705
10567750000.0	51.3831782651
10570375000.0	49.7476702792
10573000000.0	50.3104228414
10575625000.0	50.5785366031
10578250000.0	53.4414473834
10580875000.0	53.532430445
10583500000.0	56.5625808277
10586125000.0	52.1471110661
10588750000.0	54.143431531
10591375000.0	53.4033272045
10594000000.0	53.0579540623
10596625000.0	54.3235829332
10599250000.0	51.5492615805
10601875000.0	54.5896610374
10604500000.0	52.5317038661
10607125000.0	54.1013708521
10609750000.0	52.817866958
10612375000.0	54.0157026966
10615000000.0	50.1484753777
10617625000.0	51.820556644
10620250000.0	53.738048489
10622875000.0	52.0144350845
10625500000.0	52.0850277785
10628125000.0	51.7443078947
10630750000.0	50.1461829004
10633375000.0	49.8811543148
10636000000.0	49.7459408132
10638625000.0	53.7769977384
10641250000.0	50.5124512432
10643875000.0	51.3387869025
10646500000.0	50.3427235243
10649125000.0	50.0276599125
10651750000.0	53.1318689268
10654375000.0	47.8075180217
10657000000.0	50.414975882
10659625000.0	50.1939711703
10662250000.0	49.7894814924
10664875000.0	49.9737667682
10667500000.0	48.2866701304
10670125000.0	49.1483645106
10672750000.0	48.2952122166
10675375000.0	50.6441244607
10678000000.0	52.4513325467
10680625000.0	47.2838902609
10683250000.0	51.9428064079
10685875000.0	47.5047470407
10688500000.0	50.1563594223
10691125000.0	49.7374254449
10693750000.0	50.9669434526
10696375000.0	48.7035317501
10699000000.0	51.4203302302
10701625000.0	50.1196527587
10704250000.0	49.5209734667
10706875000.0	51.1715674989
10709500000.0	50.3633767027
10712125000.0	50.3145315571
10714750000.0	49.5966597879
10717375000.0	46.5682468879
10720000000.0	51.1909082493
10722625000.0	49.4443348283
10725250000.0	49.9715193013
10727875000.0	50.3625894982
10730500000.0	51.4467852356
10733125000.0	45.2930981775
10735750000.0	48.5243455035
10738375000.0	47.3186203436
10741000000.0	48.8203900308
10743625000.0	47.5220249359
10746250000.0	46.6122885893
10748875000.0	50.0340824096
10751500000.0	47.2918034207
10754125000.0	49.9768255744
10756750000.0	47.4188614464
10759375000.0	48.7148765039
10762000000.0	48.6449310021
10764625000.0	47.1470049944
10767250000.0	51.172979448
10769875000.0	49.7589303535
10772500000.0	45.4482524357
10775125000.0	48.293479229
10777750000.0	47.2104958854
10780375000.0	45.8637892159
10783000000.0	44.0651884286
10785625000.0	45.9262470205
10788250000.0	47.7310009762
10790875000.0	45.6395384473
10793500000.0	46.1786686323
10796125000.0	44.3670622174
10798750000.0	45.4693992348
10801375000.0	45.505273156
10804000000.0	45.2375953352
10806625000.0	45.0737301354
10809250000.0	45.5577992711
10811875000.0	44.2626930195
10814500000.0	48.2268354597
10817125000.0	46.215387839
10819750000.0	46.0406936959
10822375000.0	43.5483761559
10825000000.0	45.640981474
10827625000.0	45.2472537339
10830250000.0	45.4124782252
10832875000.0	46.9020440169
10835500000.0	45.30966981
10838125000.0	45.5251847213
10840750000.0	46.4127769857
10843375000.0	45.8464007455
10846000000.0	46.8082230108
10848625000.0	44.0601278263
10851250000.0	45.6202466819
10853875000.0	44.1362707626
10856500000.0	44.482015047
10859125000.0	45.1614503904
10861750000.0	48.3352218082
10864375000.0	43.3835526361
10867000000.0	46.0115815131
10869625000.0	43.5927234295
10872250000.0	44.0861628856
10874875000.0	44.9543257486
10877500000.0	43.2385953426
10880125000.0	45.0332987812
10882750000.0	46.6937295289
10885375000.0	45.7782115694
10888000000.0	44.0467720081
10890625000.0	44.4268350743
10893250000.0	43.8658095563
10895875000.0	43.2327919199
10898500000.0	43.5146882485
10901125000.0	42.1485668312
10903750000.0	44.4785107312
10906375000.0	44.3409334594
10909000000.0	43.3714605325
10911625000.0	43.3444283704
10914250000.0	42.1256635982
10916875000.0	42.3774903658
10919500000.0	45.5322167102
10922125000.0	43.2003053984
10924750000.0	41.6697453202
10927375000.0	43.860599103
10930000000.0	41.6455072361
10932625000.0	43.2773579291
10935250000.0	44.8114221159
10937875000.0	43.0301029933
10940500000.0	43.2550767198
10943125000.0	41.0309839905
10945750000.0	43.6243410924
10948375000.0	44.0372971649
10951000000.0	42.1830811529
10953625000.0	42.66533703
10956250000.0	42.3076519008
10958875000.0	42.1023382901
10961500000.0	42.8343402232
10964125000.0	40.4283076799
10966750000.0	40.8799381941
10969375000.0	40.3389685852
10972000000.0	39.9886811359
10974625000.0	42.9338295662
10977250000.0	39.5566820293
10979875000.0	42.8763182058
10982500000.0	41.3571472118
10985125000.0	41.3061570948
10987750000.0	41.186146278
10990375000.0	39.9599942856
10993000000.0	41.3241288524
10995625000.0	38.2449752955
10998250000.0	41.1024342988
11000875000.0	40.4590489195
11003500000.0	42.0413195412
11006125000.0	40.1539387996
11008750000.0	44.1515539528
11011375000.0	39.9968412663
11014000000.0	40.5386019101
11016625000.0	40.8798327126
11019250000.0	43.0362983537
11021875000.0	41.9408470029
11024500000.0	43.4201072853
11027125000.0	40.7452335649
11029750000.0	43.2256939392
11032375000.0	41.2437064352
11035000000.0	41.6726330149
11037625000.0	40.7318396067
11040250000.0	42.7419098522
11042875000.0	39.8278281263
11045500000.0	41.3026294891
11048125000.0	42.4899899629
11050750000.0	39.8570932842
11053375000.0	40.6717889777
11056000000.0	42.0944969828
11058625000.0	43.1714695472
11061250000.0	40.4357702533
11063875000.0	40.8139028672
11066500000.0	42.170696087
11069125000.0	39.0759386585
11071750000.0	40.9027590895
11074375000.0	42.0459463806
11077000000.0	40.5769552187
11079625000.0	38.9604906315
11082250000.0	43.3359161658
11084875000.0	42.106830863
11087500000.0	43.2996508083
11090125000.0	40.4040329154
11092750000.0	41.029376291
11095375000.0	39.1335031444
11098000000.0	39.1747440954
11100625000.0	43.7262453011
11103250000.0	40.3052516115
11105875000.0	38.8137598989
11108500000.0	40.6296715642
11111125000.0	40.5068175234
11113750000.0	38.7700480637
11116375000.0	40.952541914
11119000000.0	40.6969233832
11121625000.0	40.1010216523
11124250000.0	39.4626599101
11126875000.0	39.9414422329
11129500000.0	41.1013676942
11132125000.0	41.2168370386
11134750000.0	37.5927300861
11137375000.0	36.7563280391
11140000000.0	39.3632381541
11142625000.0	40.1877971161
11145250000.0	39.5638310668
11147875000.0	40.6919576166
11150500000.0	36.8868954026
11153125000.0	38.4656990753
11155750000.0	39.5107792021
11158375000.0	38.012804108
11161000000.0	39.5301656034
11163625000.0	41.7891443931
11166250000.0	38.9862841864
11168875000.0	39.7499274198
11171500000.0	40.2652516009
11174125000.0	38.4199075806
11176750000.0	41.626527769
11179375000.0	39.4744334068
11182000000.0	40.2332433955
11184625000.0	39.5079528029
11187250000.0	40.079908277
11189875000.0	38.4067953261
11192500000.0	39.7277945839
11195125000.0	39.8884495097
11197750000.0	40.0985240673
11200375000.0	38.7722800098
11203000000.0	38.8221693061
11205625000.0	38.2033810922
11208250000.0	42.3104540159
11210875000.0	36.3621199196
11213500000.0	40.6673789141
11216125000.0	40.9668403598
11218750000.0	37.6559277726
11221375000.0	37.5431419023
11224000000.0	38.2797608573
11226625000.0	38.954381909
11229250000.0	37.8870259985
11231875000.0	40.7646371372
11234500000.0	37.8611726514
11237125000.0	40.1569411919
11239750000.0	41.390043386
11242375000.0	38.9483573955
11245000000.0	38.2664686872
11247625000.0	40.9002560771
11250250000.0	40.5584941476
11252875000.0	39.1388361265
11255500000.0	39.3472053694
11258125000.0	38.6302772559
11260750000.0	39.9423048949
11263375000.0	40.3771005978
11266000000.0	36.9640410493
11268625000.0	39.8602518615
11271250000.0	37.8436345219
11273875000.0	37.5323350203
11276500000.0	39.2117165573
11279125000.0	37.2731916951
11281750000.0	36.5213349378
11284375000.0	35.759087162
11287000000.0	35.5570400237
11289625000.0	38.643229775
11292250000.0	39.0115313623
11294875000.0	34.6005561016
11297500000.0	40.500064919
11300125000.0	39.28431394
11302750000.0	38.1082459494
11305375000.0	38.8986861017
11308000000.0	38.0153083585
11310625000.0	36.9389025839
11313250000.0	38.7345161101
11315875000.0	38.5983007736
11318500000.0	38.9294501676
11321125000.0	40.8140333216
11323750000.0	38.3226748382
11326375000.0	38.6788511076
11329000000.0	36.9520987636
11331625000.0	37.6917800155
11334250000.0	39.9507233887
11336875000.0	39.890726871
11339500000.0	37.4238288944
11342125000.0	39.5191406902
11344750000.0	38.4086295016
11347375000.0	37.9232058539
11350000000.0	38.5561830823
11352625000.0	39.3917051471
11355250000.0	36.58894652
11357875000.0	39.3598449617
11360500000.0	36.8473060941
11363125000.0	39.2242971297
11365750000.0	39.1656843557
11368375000.0	37.6922286056
11371000000.0	36.6711110978
11373625000.0	38.3620898871
11376250000.0	38.0033912167
11378875000.0	40.5580215896
11381500000.0	39.41794924
11384125000.0	39.6003859115
11386750000.0	36.1695084064
11389375000.0	39.2185424298
11392000000.0	37.9522651648
11394625000.0	37.3613191824
11397250000.0	41.2548059104
11399875000.0	37.6124170633
11402500000.0	37.5864989175
11405125000.0	38.697532086
11407750000.0	38.2962670748
11410375000.0	35.5329019287
11413000000.0	39.1374941711
11415625000.0	37.4774858417
11418250000.0	39.3487693645
11420875000.0	36.465091351
11423500000.0	36.6506254144
11426125000.0	37.5027533754
11428750000.0	36.8698164833
11431375000.0	37.3018408745
11434000000.0	36.8978552894
11436625000.0	37.9857245536
11439250000.0	38.3817790946
11441875000.0	38.3015827637
11444500000.0	38.0811942385
11447125000.0	37.7459908756
11449750000.0	39.1527774371
11452375000.0	36.6466791441
11455000000.0	38.3312690511
11457625000.0	39.8836677221
11460250000.0	40.2345519194
11462875000.0	37.355891124
11465500000.0	39.0245569675
11468125000.0	39.5909294992
11470750000.0	37.1217415085
11473375000.0	36.7690673605
11476000000.0	37.8846234988
11478625000.0	36.2021348208
11481250000.0	39.5904376133
11483875000.0	37.9371955002
11486500000.0	38.311929909
11489125000.0	37.7977102421
11491750000.0	35.4585712148
11494375000.0	37.9348619241
11497000000.0	35.9780046443
11499625000.0	38.544241598
11502250000.0	37.1100262048
11504875000.0	36.9000101189
11507500000.0	40.1094819983
11510125000.0	40.8844349569
11512750000.0	39.8374319655
11515375000.0	36.4453241496
11518000000.0	37.086175083
11520625000.0	38.2994817739
11523250000.0	36.6614598074
11525875000.0	39.4864227439
11528500000.0	39.6219344691
11531125000.0	39.0949831
11533750000.0	37.2644960345
11536375000.0	37.5426303017
11539000000.0	38.5167915132
11541625000.0	37.8775131043
11544250000.0	38.6900562998
11546875000.0	38.0739259836
11549500000.0	40.8039936783
11552125000.0	39.1800263043
11554750000.0	37.1332199875
11557375000.0	39.2594469766
11560000000.0	40.3330923997
11562625000.0	39.9565453385
11565250000.0	41.7982570158
11567875000.0	38.0372896191
11570500000.0	40.5581914195
11573125000.0	39.9889870057
11575750000.0	38.0579981392
11578375000.0	38.2899666075
11581000000.0	37.4226055445
11583625000.0	40.4447300813
11586250000.0	39.4132231896
11588875000.0	40.6438950152
11591500000.0	41.0124936066
11594125000.0	38.2954586817
11596750000.0	38.762848528
11599375000.0	38.5646359262
11602000000.0	40.1531262274
11604625000.0	37.944617483
11607250000.0	38.4621480198
11609875000.0	38.826419744
11612500000.0	38.036967643
11615125000.0	39.7164788065
11617750000.0	40.7095296728
11620375000.0	38.2552226968
11623000000.0	39.7772720294
11625625000.0	41.0442890756
11628250000.0	40.388861492
11630875000.0	38.0950306149
11633500000.0	38.4059685353
11636125000.0	39.4784876147
11638750000.0	40.5419473982
11641375000.0	39.8704688295
11644000000.0	39.0103250181
11646625000.0	42.1165470265
11649250000.0	39.9812975868
11651875000.0	39.3381319986
11654500000.0	37.47350063
11657125000.0	39.4999836203
11659750000.0	39.1931777249
11662375000.0	39.0895337916
11665000000.0	39.5436356913
11667625000.0	38.7682239134
11670250000.0	39.280831107
11672875000.0	37.3280197818
11675500000.0	39.7577019965
11678125000.0	40.4350919341
11680750000.0	39.7017213636
11683375000.0	38.6367522406
11686000000.0	39.4555289661
11688625000.0	40.0120653464
11691250000.0	39.2449670551
11693875000.0	40.4797658646
11696500000.0	41.7363168293
11699125000.0	39.9675685827
11701750000.0	40.9473551382
11704375000.0	39.5303653798
11707000000.0	42.1398400006
11709625000.0	40.6731819119
11712250000.0	38.820067834
11714875000.0	42.0438181173
11717500000.0	40.8065301208
11720125000.0	41.4012744229
11722750000.0	41.1090247602
11725375000.0	39.5474822041
11728000000.0	39.8170877132
11730625000.0	39.4904033395
11733250000.0	39.3403573174
11735875000.0	37.7883468237
11738500000.0	39.5336020936
11741125000.0	38.4697325978
11743750000.0	40.8815285051
11746375000.0	40.7107713222
11749000000.0	39.5741208987
11751625000.0	39.639830757
11754250000.0	37.6079213486
11756875000.0	39.4662762785
11759500000.0	38.5894629195
11762125000.0	36.1779746492
11764750000.0	37.9723070724
11767375000.0	40.0076466015
11770000000.0	39.8450643893
11772625000.0	40.6439250419
11775250000.0	38.7168460833
11777875000.0	38.6818719325
11780500000.0	38.1536173905
11783125000.0	39.7623792408
11785750000.0	39.8758016291
11788375000.0	40.9337117646
11791000000.0	39.3951495429
11793625000.0	39.2283518026
11796250000.0	41.7385680573
11798875000.0	40.934827877
11801500000.0	41.4255856705
11804125000.0	40.0180482321
11806750000.0	38.3100441825
11809375000.0	41.0397968384
11812000000.0	42.2394782052
11814625000.0	40.5823894349
11817250000.0	41.1684268021
11819875000.0	40.639856278
11822500000.0	40.2363185804
11825125000.0	39.8075776621
11827750000.0	39.4438238358
11830375000.0	38.5005087107
11833000000.0	41.1067392067
11835625000.0	40.2620524049
11838250000.0	40.2773155407
11840875000.0	42.1123748169
11843500000.0	40.5839283244
11846125000.0	40.6968009196
11848750000.0	42.2407501919
11851375000.0	41.63355716
11854000000.0	42.1579135782
11856625000.0	40.5115234477
11859250000.0	40.2603726007
11861875000.0	40.9975922507
11864500000.0	40.1153399302
11867125000.0	40.3384587666
11869750000.0	40.7690046806
11872375000.0	40.9239958884
11875000000.0	40.8389560955
11877625000.0	41.2139997439
11880250000.0	39.265894408
11882875000.0	41.6387428383
11885500000.0	41.7554085857
11888125000.0	40.9892405774
11890750000.0	43.0514081227
11893375000.0	41.9380496776
11896000000.0	40.3194266202
11898625000.0	40.6147019712
11901250000.0	41.2704585953
11903875000.0	41.7202499071
11906500000.0	40.9884382652
11909125000.0	40.8512489522
11911750000.0	41.772841396
11914375000.0	42.1708869737
11917000000.0	41.1972150243
11919625000.0	42.3005032725
11922250000.0	40.5327855231
11924875000.0	42.2379195382
11927500000.0	42.3690852969
11930125000.0	38.9093280388
11932750000.0	41.4259703176
11935375000.0	41.0171182685
11938000000.0	41.8539837934
11940625000.0	41.6699875326
11943250000.0	41.12945561
11945875000.0	41.3389595127
11948500000.0	41.8563825848
11951125000.0	42.2751873717
11953750000.0	42.8368884497
11956375000.0	38.9738695587
11959000000.0	40.7722418487
11961625000.0	41.3506556489
11964250000.0	40.1598964343
11966875000.0	40.8545304973
11969500000.0	42.1990081012
11972125000.0	41.223925204
11974750000.0	39.018309567
11977375000.0	41.8657185052
11980000000.0	41.3775785463
11982625000.0	40.5644721678
11985250000.0	41.7353056552
11987875000.0	41.7581805687
11990500000.0	41.7852905673
11993125000.0	41.3395718293
11995750000.0	41.7049524923
11998375000.0	40.6968795692
12001000000.0	41.4765391827
12003625000.0	41.6334217782
12006250000.0	40.1589548186
12008875000.0	43.9392259148
12011500000.0	41.4860568969
12014125000.0	39.6793192594
12016750000.0	41.9988684443
12019375000.0	41.8901713417
12022000000.0	43.9253679413
12024625000.0	42.6959970557
12027250000.0	40.2944091989
12029875000.0	43.6279065912
12032500000.0	43.2275538408
12035125000.0	45.4065698045
12037750000.0	42.6839455631
12040375000.0	41.4415505682
12043000000.0	44.6615949863
12045625000.0	45.2251585348
12048250000.0	43.3831917439
12050875000.0	44.7363068778
12053500000.0	42.7923487216
12056125000.0	43.6492109895
12058750000.0	43.6107331827
12061375000.0	42.6580664623
12064000000.0	43.6825290911
12066625000.0	43.7881628355
12069250000.0	43.8048911204
12071875000.0	43.1943945534
12074500000.0	43.8230426923
12077125000.0	44.9019904959
12079750000.0	43.4672317289
12082375000.0	41.506737347
12085000000.0	42.9411934516
12087625000.0	43.8738532593
12090250000.0	46.1614794218
12092875000.0	42.2923097573
12095500000.0	42.375605451
12098125000.0	41.5664529596
12100750000.0	44.6203298741
12103375000.0	44.8034761264
12106000000.0	42.7120757811
12108625000.0	43.898067146
12111250000.0	44.0242081866
12113875000.0	45.2776983952
12116500000.0	45.8358991899
12119125000.0	44.6821395434
12121750000.0	44.5753213327
12124375000.0	43.8249040878
12127000000.0	44.0632505451
12129625000.0	43.7963776717
12132250000.0	44.7884231397
12134875000.0	44.6357201115
12137500000.0	45.2871251924
12140125000.0	46.0556179579
12142750000.0	42.844093791
12145375000.0	45.2423961951
12148000000.0	44.9101198609
12150625000.0	41.8745523413
12153250000.0	46.4668631545
12155875000.0	41.5346253644
12158500000.0	43.4992360787
12161125000.0	43.6157282172
12163750000.0	44.8900302183
12166375000.0	44.7108941211
12169000000.0	45.0061788843
12171625000.0	45.947275966
12174250000.0	43.7302828896
12176875000.0	44.2402396698
12179500000.0	43.9538364779
12182125000.0	43.8745258812
12184750000.0	43.4602869031
12187375000.0	46.3311206773
12190000000.0	44.0025703418
12192625000.0	43.7377964816
12195250000.0	43.678617824
12197875000.0	45.9118114574
12200500000.0	43.3509749845
12203125000.0	44.706116308
12205750000.0	44.7241126102
12208375000.0	44.5439123918
12211000000.0	44.3108254684
12213625000.0	45.0398341098
12216250000.0	44.3935539983
12218875000.0	44.3245476147
12221500000.0	45.5839962042
12224125000.0	45.6158083276
12226750000.0	45.4023148678
12229375000.0	44.5719158218
12232000000.0	46.5380766592
12234625000.0	43.9637100765
12237250000.0	43.7980328393
12239875000.0	45.9428743448
12242500000.0	45.6161467447
12245125000.0	46.266119466
12247750000.0	45.1564981735
12250375000.0	47.5857507613
12253000000.0	44.5704749287
12255625000.0	44.1874536765
12258250000.0	44.3881617859
12260875000.0	43.331772472
12263500000.0	48.1753413849
12266125000.0	44.9096865263
12268750000.0	44.0407415012
12271375000.0	45.3940497774
12274000000.0	43.7486976833
12276625000.0	44.5112387777
12279250000.0	45.6426698703
12281875000.0	43.449017463
12284500000.0	45.4314256667
12287125000.0	44.8477853697
12289750000.0	44.2577737173
12292375000.0	45.6036298143
12295000000.0	44.0966171866
12297625000.0	45.1890676631
12300250000.0	43.854207875
12302875000.0	45.0427344077
12305500000.0	45.2716086801
12308125000.0	45.9010287899
12310750000.0	44.7739108421
12313375000.0	45.5953337169
12316000000.0	45.5461053357
12318625000.0	45.3581277372
12321250000.0	46.4270940509
12323875000.0	46.4532602045
12326500000.0	45.5672087794
12329125000.0	45.7202142495
12331750000.0	46.558624659
12334375000.0	45.6390611585
12337000000.0	46.3853211312
12339625000.0	45.1725778665
12342250000.0	45.4000326219
12344875000.0	44.3532181689
12347500000.0	46.7174583101
12350125000.0	47.2713905091
12352750000.0	45.7469067633
12355375000.0	48.3742611616
12358000000.0	46.4651516893
12360625000.0	47.2605848414
12363250000.0	44.4799309892
12365875000.0	45.7597581179
12368500000.0	45.988176361
12371125000.0	46.9537638426
12373750000.0	44.9942387208
12376375000.0	45.5707821695
12379000000.0	44.9616128214
12381625000.0	45.7042078438
12384250000.0	46.5299579219
12386875000.0	44.7459585674
12389500000.0	44.5847472157
12392125000.0	46.2621143859
12394750000.0	45.8365523097
12397375000.0	45.483430405
12400000000.0	45.4400212419
