Fre(Hz)  	er	ei	ur	ui	Zin	Reflectivity
8202625000.0000	12.1951	1.7868	1.0349	0.0208	0.3792	91.8272
8205250000.0000	12.1077	1.8374	1.0418	0.0017	0.3811	90.3957
8207875000.0000	12.1767	1.7613	1.0162	0.0158	0.3695	91.8975
8210500000.0000	12.1636	1.7831	1.0386	0.0253	0.3817	92.0402
8213125000.0000	12.1586	1.8176	1.0339	0.0148	0.3789	91.3078
8215750000.0000	12.1550	1.7743	1.0227	0.0136	0.3731	91.5996
8218375000.0000	12.2022	1.7915	1.0336	0.0261	0.3803	92.0837
8221000000.0000	12.1608	1.7667	1.0224	0.0210	0.3738	92.0594
8223625000.0000	12.1410	1.8053	1.0243	0.0086	0.3742	91.1193
8226250000.0000	12.1379	1.8582	1.0466	0.0053	0.3860	90.3377
8228875000.0000	12.1309	1.8368	1.0296	0.0049	0.3771	90.6580
8231500000.0000	12.1473	1.8272	1.0378	0.0156	0.3824	91.1984
8234125000.0000	12.1600	1.8541	1.0364	0.0027	0.3815	90.3177
8236750000.0000	12.1609	1.8178	1.0354	0.0140	0.3817	91.1655
8239375000.0000	12.1833	1.7830	1.0318	0.0207	0.3807	91.7700
8242000000.0000	12.1498	1.8002	1.0295	0.0254	0.3794	91.9907
8244625000.0000	12.1506	1.8126	1.0395	0.0217	0.3848	91.5625
8247250000.0000	12.1724	1.8205	1.0331	0.0158	0.3817	91.2458
8249875000.0000	12.1543	1.8033	1.0296	0.0211	0.3800	91.6955
8252500000.0000	12.1739	1.7991	1.0377	0.0208	0.3848	91.5692
8255125000.0000	12.1483	1.8260	1.0249	0.0174	0.3777	91.4104
8257750000.0000	12.1599	1.7926	1.0393	0.0188	0.3859	91.4507
8260375000.0000	12.1742	1.8072	1.0347	0.0189	0.3839	91.4354
8263000000.0000	12.1464	1.8175	1.0286	0.0268	0.3808	91.9361
8265625000.0000	12.1371	1.8101	1.0280	0.0171	0.3801	91.4003
8268250000.0000	12.1748	1.7996	1.0357	0.0262	0.3854	91.8704
8270875000.0000	12.1480	1.7920	1.0244	0.0300	0.3794	92.2957
8273500000.0000	12.1784	1.8467	1.0401	0.0234	0.3882	91.3747
8276125000.0000	12.1871	1.8221	1.0287	0.0362	0.3830	92.4286
8278750000.0000	12.1849	1.8178	1.0297	0.0291	0.3834	91.9991
8281375000.0000	12.1381	1.8192	1.0122	0.0113	0.3728	91.1866
8284000000.0000	12.1662	1.7777	1.0216	0.0212	0.3789	91.8336
8286625000.0000	12.1306	1.7799	1.0218	0.0277	0.3790	92.2115
8289250000.0000	12.0948	1.8475	1.0158	0.0062	0.3746	90.6833
8291875000.0000	12.1751	1.7924	1.0390	0.0403	0.3900	92.6542
8294500000.0000	12.1344	1.7912	1.0201	0.0146	0.3783	91.3693
8297125000.0000	12.1459	1.8111	1.0283	0.0250	0.3835	91.7602
8299750000.0000	12.1493	1.8498	1.0340	0.0042	0.3859	90.2249
8302375000.0000	12.1310	1.7861	1.0279	0.0203	0.3833	91.5986
8305000000.0000	12.1568	1.8064	1.0222	0.0228	0.3810	91.7073
8307625000.0000	12.1532	1.7850	1.0279	0.0221	0.3842	91.6907
8310250000.0000	12.1363	1.7844	1.0246	0.0200	0.3823	91.6097
8312875000.0000	12.1289	1.7833	1.0188	0.0286	0.3797	92.2091
8315500000.0000	12.1336	1.7843	1.0187	0.0194	0.3795	91.6444
8318125000.0000	12.1395	1.7978	1.0299	0.0116	0.3855	90.9353
8320750000.0000	12.1236	1.7809	1.0222	0.0187	0.3817	91.5567
8323375000.0000	12.1425	1.8099	1.0360	0.0151	0.3895	90.9707
8326000000.0000	12.1067	1.7705	1.0270	0.0182	0.3845	91.5006
8328625000.0000	12.1051	1.7709	1.0180	0.0209	0.3800	91.7797
8331250000.0000	12.1104	1.7931	1.0191	0.0067	0.3802	90.7898
8333875000.0000	12.1372	1.7800	1.0243	0.0190	0.3842	91.4992
8336500000.0000	12.1054	1.7885	1.0155	0.0049	0.3786	90.7443
8339125000.0000	12.0717	1.7859	1.0188	0.0007	0.3799	90.4679
8341750000.0000	12.1000	1.7800	1.0196	0.0013	0.3811	90.4937
8344375000.0000	12.0955	1.7628	1.0182	0.0143	0.3810	91.3761
8347000000.0000	12.1365	1.7723	1.0184	0.0197	0.3821	91.6282
8349625000.0000	12.1237	1.7809	1.0183	0.0048	0.3815	90.6801
8352250000.0000	12.1442	1.8067	1.0453	0.0040	0.3968	90.0715
8354875000.0000	12.0949	1.7751	1.0112	0.0048	0.3777	90.8070
8357500000.0000	12.0557	1.8182	1.0192	-0.0031	0.3813	90.0105
8360125000.0000	12.1045	1.7626	1.0133	-0.0097	0.3789	89.9548
8362750000.0000	12.0902	1.7614	1.0214	0.0105	0.3841	91.0480
8365375000.0000	12.0842	1.7900	1.0219	-0.0153	0.3834	89.3500
8368000000.0000	12.0983	1.8105	1.0262	0.0077	0.3871	90.5353
8370625000.0000	12.0462	1.7882	1.0132	0.0053	0.3794	90.7111
8373250000.0000	12.1180	1.7632	1.0216	0.0188	0.3859	91.4968
8375875000.0000	12.1485	1.7962	1.0277	0.0217	0.3901	91.3931
8378500000.0000	12.0903	1.7824	1.0082	0.0004	0.3778	90.4729
8381125000.0000	12.0839	1.7771	1.0048	0.0037	0.3763	90.7369
8383750000.0000	12.0980	1.7846	1.0241	0.0083	0.3874	90.6770
8386375000.0000	12.1260	1.8101	1.0275	0.0064	0.3898	90.3538
8389000000.0000	12.1192	1.8182	1.0251	0.0124	0.3889	90.7071
8391625000.0000	12.1188	1.7797	1.0187	0.0093	0.3855	90.8110
8394250000.0000	12.1236	1.7972	1.0205	0.0162	0.3871	91.0992
8396875000.0000	12.1211	1.8222	1.0464	0.0044	0.4012	89.8402
8399500000.0000	12.1458	1.7859	1.0323	0.0301	0.3952	91.8269
8402125000.0000	12.1278	1.8440	1.0441	0.0044	0.4005	89.7352
8404750000.0000	12.1487	1.7967	1.0230	0.0192	0.3899	91.2076
8407375000.0000	12.1325	1.8150	1.0174	0.0166	0.3867	91.0286
8410000000.0000	12.1120	1.8712	1.0461	-0.0071	0.4015	88.8326
8412625000.0000	12.1491	1.7881	1.0248	0.0225	0.3919	91.4041
8415250000.0000	12.1458	1.8143	1.0365	0.0201	0.3985	90.9308
8417875000.0000	12.1323	1.8078	1.0354	0.0182	0.3978	90.8607
8420500000.0000	12.1362	1.8064	1.0375	0.0112	0.3990	90.3831
8423125000.0000	12.1579	1.7871	1.0275	0.0268	0.3947	91.6072
8425750000.0000	12.1145	1.8385	1.0314	0.0154	0.3958	90.5615
8428375000.0000	12.1388	1.7893	1.0274	0.0175	0.3943	91.0004
8431000000.0000	12.1055	1.7986	1.0207	0.0073	0.3898	90.4214
8433625000.0000	12.1117	1.8219	1.0370	0.0138	0.3996	90.4371
8436250000.0000	12.1479	1.8179	1.0256	0.0228	0.3944	91.1769
8438875000.0000	12.1320	1.8145	1.0372	0.0085	0.4003	90.1147
8441500000.0000	12.1440	1.7842	1.0266	0.0062	0.3946	90.2849
8444125000.0000	12.1287	1.7905	1.0261	0.0069	0.3943	90.3022
8446750000.0000	12.1433	1.8006	1.0201	0.0212	0.3921	91.2175
8449375000.0000	12.1511	1.7940	1.0112	0.0185	0.3873	91.2057
8452000000.0000	12.1505	1.7640	1.0087	0.0396	0.3872	92.7412
8454625000.0000	12.1750	1.8006	1.0225	0.0252	0.3949	91.3980
8457250000.0000	12.1595	1.7889	1.0168	0.0227	0.3915	91.3859
8459875000.0000	12.1223	1.7669	1.0066	0.0183	0.3852	91.3817
8462500000.0000	12.1276	1.7664	0.9996	0.0055	0.3811	90.6767
8465125000.0000	12.1388	1.7527	1.0047	0.0072	0.3844	90.7667
8467750000.0000	12.1542	1.7771	1.0144	0.0198	0.3909	91.2664
8470375000.0000	12.1623	1.7722	1.0056	0.0179	0.3862	91.2964
8473000000.0000	12.1179	1.7372	0.9827	0.0034	0.3725	90.9183
8475625000.0000	12.1487	1.8058	1.0201	0.0003	0.3938	89.7733
8478250000.0000	12.1585	1.8210	1.0255	0.0249	0.3985	91.1471
8480875000.0000	12.1410	1.7854	1.0211	0.0099	0.3952	90.4535
8483500000.0000	12.1392	1.8059	1.0135	0.0087	0.3910	90.3763
8486125000.0000	12.1305	1.7345	0.9911	0.0147	0.3789	91.4672
8488750000.0000	12.1078	1.7941	0.9994	0.0018	0.3828	90.2265
8491375000.0000	12.1606	1.7595	0.9992	0.0196	0.3845	91.4976
8494000000.0000	12.1617	1.7732	1.0101	0.0004	0.3900	90.0336
8496625000.0000	12.1518	1.7801	1.0047	0.0168	0.3878	91.1149
8499250000.0000	12.1210	1.7895	1.0122	0.0229	0.3921	91.3379
8501875000.0000	12.0922	1.7958	1.0094	0.0156	0.3899	90.8855
8504500000.0000	12.1475	1.8036	1.0181	0.0058	0.3955	90.0493
8507125000.0000	12.1516	1.7828	0.9989	0.0140	0.3853	90.9759
8509750000.0000	12.1328	1.7920	1.0057	0.0051	0.3887	90.2533
8512375000.0000	12.1187	1.7903	1.0099	0.0034	0.3910	90.0854
8515000000.0000	12.1083	1.8119	1.0006	0.0060	0.3859	90.2827
8517625000.0000	12.1136	1.7796	1.0142	0.0191	0.3946	91.0571
8520250000.0000	12.1335	1.8112	1.0193	0.0065	0.3974	89.9847
8522875000.0000	12.1023	1.8021	1.0190	-0.0053	0.3965	89.3011
8525500000.0000	12.1083	1.7909	1.0143	0.0125	0.3950	90.5498
8528125000.0000	12.1432	1.8112	1.0064	0.0355	0.3924	92.0236
8530750000.0000	12.1065	1.7951	0.9973	0.0162	0.3859	91.0073
8533375000.0000	12.1541	1.7850	0.9979	0.0204	0.3874	91.2959
8536000000.0000	12.1147	1.7956	1.0111	0.0113	0.3941	90.4549
8538625000.0000	12.1006	1.8420	1.0266	0.0149	0.4033	90.1759
8541250000.0000	12.1160	1.8275	1.0064	0.0134	0.3920	90.4725
8543875000.0000	12.1035	1.8225	1.0280	0.0112	0.4044	90.0014
8546500000.0000	12.1045	1.8356	1.0322	0.0007	0.4066	89.1749
8549125000.0000	12.0787	1.8335	1.0251	0.0077	0.4026	89.7592
8551750000.0000	12.0986	1.8275	1.0242	0.0148	0.4031	90.2417
8554375000.0000	12.1293	1.8599	1.0404	0.0144	0.4133	89.7361
8557000000.0000	12.1042	1.8275	1.0165	-0.0000	0.3984	89.3972
8559625000.0000	12.1410	1.8701	1.0286	0.0168	0.4071	90.0121
8562250000.0000	12.1195	1.8791	1.0347	0.0149	0.4105	89.7333
8564875000.0000	12.1209	1.8680	1.0371	0.0171	0.4123	89.8811
8567500000.0000	12.1549	1.8808	1.0351	0.0141	0.4118	89.6235
8570125000.0000	12.0826	1.8444	1.0270	0.0022	0.4055	89.2293
8572750000.0000	12.1017	1.8507	1.0196	0.0126	0.4022	89.9657
8575375000.0000	12.1069	1.8194	1.0202	0.0132	0.4029	90.1551
8578000000.0000	12.1036	1.8616	1.0368	0.0010	0.4123	88.8364
8580625000.0000	12.1051	1.8248	1.0243	0.0167	0.4060	90.2658
8583250000.0000	12.1264	1.8557	1.0311	0.0163	0.4106	89.9303
8585875000.0000	12.1336	1.8376	1.0266	0.0129	0.4081	89.8739
8588500000.0000	12.1085	1.8241	1.0206	0.0077	0.4041	89.7166
8591125000.0000	12.1453	1.8164	1.0245	0.0204	0.4080	90.4964
8593750000.0000	12.1340	1.8512	1.0245	0.0192	0.4080	90.2180
8596375000.0000	12.1396	1.8477	1.0176	0.0142	0.4039	90.0156
8599000000.0000	12.1222	1.8532	1.0185	0.0137	0.4044	89.9344
8601625000.0000	12.1339	1.8217	1.0154	0.0260	0.4037	90.9611
8604250000.0000	12.1512	1.8096	1.0039	0.0144	0.3968	90.4332
8606875000.0000	12.1040	1.8369	1.0186	0.0220	0.4054	90.5470
8609500000.0000	12.1265	1.8297	1.0198	0.0165	0.4064	90.1855
8612125000.0000	12.1296	1.8142	1.0277	0.0162	0.4115	90.1029
8614750000.0000	12.1343	1.8689	1.0246	0.0280	0.4105	90.6185
8617375000.0000	12.1107	1.8192	1.0242	0.0134	0.4093	89.9450
8620000000.0000	12.1525	1.8176	1.0120	0.0316	0.4041	91.3451
8622625000.0000	12.1391	1.8027	1.0159	0.0087	0.4052	89.8301
8625250000.0000	12.1697	1.8478	1.0276	0.0254	0.4138	90.4645
8627875000.0000	12.1287	1.8412	1.0197	0.0215	0.4084	90.3833
8630500000.0000	12.1212	1.8361	1.0331	0.0269	0.4169	90.5367
8633125000.0000	12.1082	1.7783	1.0045	0.0056	0.3987	89.9287
8635750000.0000	12.1519	1.8094	1.0218	0.0268	0.4111	90.8488
8638375000.0000	12.0594	1.8661	1.0272	-0.0047	0.4113	88.3859
8641000000.0000	12.1381	1.7789	1.0143	0.0156	0.4063	90.3838
8643625000.0000	12.1034	1.8109	1.0122	0.0185	0.4048	90.4377
8646250000.0000	12.1340	1.7485	0.9996	0.0136	0.3978	90.6446
8648875000.0000	12.1180	1.7661	1.0082	0.0194	0.4033	90.7898
8651500000.0000	12.1010	1.8665	1.0203	0.0056	0.4096	89.0932
8654125000.0000	12.0675	1.7814	0.9981	-0.0007	0.3959	89.5572
8656750000.0000	12.0607	1.8110	1.0082	0.0101	0.4025	89.9171
8659375000.0000	12.0809	1.8323	1.0060	0.0113	0.4018	89.8972
8662000000.0000	12.0800	1.7933	1.0112	0.0088	0.4050	89.8500
8664625000.0000	12.0924	1.7647	1.0056	0.0182	0.4027	90.7210
8667250000.0000	12.1322	1.8224	1.0085	0.0125	0.4049	89.9297
8669875000.0000	12.1301	1.8260	1.0129	0.0076	0.4076	89.4982
8672500000.0000	12.0510	1.7910	1.0208	0.0196	0.4119	90.3925
8675125000.0000	12.1097	1.8021	1.0199	0.0148	0.4124	89.9816
8677750000.0000	12.1175	1.8142	1.0078	0.0170	0.4055	90.2548
8680375000.0000	12.0980	1.8458	1.0085	0.0033	0.4051	89.1534
8683000000.0000	12.0764	1.8212	1.0180	0.0226	0.4118	90.4190
8685625000.0000	12.1121	1.8236	1.0138	0.0200	0.4100	90.2776
8688250000.0000	12.1165	1.8095	0.9930	0.0093	0.3972	89.9882
8690875000.0000	12.0997	1.8197	1.0131	0.0092	0.4092	89.5694
8693500000.0000	12.1156	1.8332	1.0112	0.0147	0.4089	89.8731
8696125000.0000	12.0982	1.8165	1.0232	0.0145	0.4162	89.7410
8698750000.0000	12.0737	1.8242	1.0210	0.0089	0.4143	89.3622
8701375000.0000	12.0776	1.8170	1.0138	0.0111	0.4104	89.6724
8704000000.0000	12.0664	1.8201	1.0247	0.0133	0.4172	89.6003
8706625000.0000	12.1053	1.8036	1.0138	0.0174	0.4117	90.1401
8709250000.0000	12.1268	1.8434	1.0142	0.0310	0.4134	90.8149
8711875000.0000	12.1343	1.8582	1.0298	0.0150	0.4225	89.3274
8714500000.0000	12.1170	1.8612	1.0310	0.0285	0.4240	90.2161
8717125000.0000	12.1295	1.8449	1.0331	0.0270	0.4257	90.1567
8719750000.0000	12.0972	1.8442	1.0197	0.0229	0.4168	90.1265
8722375000.0000	12.0808	1.8676	1.0237	0.0006	0.4179	88.4024
8725000000.0000	12.0757	1.8247	1.0189	0.0156	0.4160	89.7489
8727625000.0000	12.0959	1.8329	1.0283	0.0154	0.4225	89.4865
8730250000.0000	12.0814	1.8628	1.0288	0.0094	0.4223	88.8896
8732875000.0000	12.1515	1.7982	1.0186	0.0343	0.4191	91.1480
8735500000.0000	12.1191	1.8242	1.0252	0.0268	0.4224	90.3472
8738125000.0000	12.0863	1.8620	1.0239	0.0105	0.4202	89.0261
8740750000.0000	12.0585	1.8085	1.0130	0.0250	0.4141	90.5381
8743375000.0000	12.0600	1.8128	1.0052	0.0102	0.4088	89.6302
8746000000.0000	12.0945	1.8055	1.0144	0.0214	0.4159	90.2498
8748625000.0000	12.1508	1.7748	1.0140	0.0205	0.4169	90.3379
8751250000.0000	12.0692	1.8580	1.0120	0.0167	0.4142	89.6541
8753875000.0000	12.1352	1.8038	1.0221	0.0235	0.4224	90.2152
8756500000.0000	12.1239	1.8371	1.0110	0.0184	0.4151	89.8623
8759125000.0000	12.1254	1.8011	1.0118	0.0128	0.4156	89.6562
8761750000.0000	12.1159	1.7983	1.0158	0.0113	0.4182	89.4877
8764375000.0000	12.1415	1.7885	1.0184	0.0153	0.4208	89.7545
8767000000.0000	12.1494	1.7988	1.0143	0.0131	0.4184	89.5984
8769625000.0000	12.1650	1.8138	1.0083	0.0195	0.4156	90.0521
8772250000.0000	12.1563	1.7892	1.0055	0.0138	0.4136	89.8449
8774875000.0000	12.1275	1.7855	1.0055	0.0118	0.4133	89.7297
8777500000.0000	12.1314	1.8121	1.0199	0.0221	0.4232	90.0139
8780125000.0000	12.1444	1.7975	1.0126	0.0244	0.4192	90.3884
8782750000.0000	12.1406	1.8007	1.0073	0.0181	0.4157	90.0088
8785375000.0000	12.1431	1.8392	1.0099	0.0158	0.4174	89.5572
8788000000.0000	12.1397	1.8485	1.0190	0.0281	0.4242	90.1900
8790625000.0000	12.1553	1.8321	1.0158	0.0374	0.4233	91.0042
8793250000.0000	12.1208	1.8101	1.0129	0.0136	0.4196	89.5025
8795875000.0000	12.1403	1.8342	1.0222	0.0142	0.4262	89.1987
8798500000.0000	12.1031	1.8085	1.0118	0.0180	0.4194	89.8339
8801125000.0000	12.1951	1.8329	1.0069	0.0299	0.4190	90.5707
8803750000.0000	12.1049	1.8330	1.0071	0.0277	0.4175	90.4353
8806375000.0000	12.1513	1.8086	1.0164	0.0269	0.4245	90.3229
8809000000.0000	12.1486	1.8068	1.0166	0.0192	0.4244	89.7690
8811625000.0000	12.1105	1.7843	1.0006	0.0185	0.4138	90.1596
8814250000.0000	12.1074	1.7687	0.9989	0.0259	0.4134	90.7987
8816875000.0000	12.0962	1.8461	1.0074	-0.0060	0.4168	87.9574
8819500000.0000	12.1458	1.8330	1.0147	0.0140	0.4238	89.2351
8822125000.0000	12.1215	1.7698	1.0039	0.0268	0.4176	90.7348
8824750000.0000	12.0768	1.8064	1.0036	0.0183	0.4163	89.9287
8827375000.0000	12.0844	1.7667	0.9885	0.0085	0.4067	89.7391
8830000000.0000	12.0882	1.8138	1.0102	0.0123	0.4209	89.3101
8832625000.0000	12.1304	1.7958	1.0130	0.0147	0.4239	89.4981
8835250000.0000	12.0878	1.8027	1.0049	0.0246	0.4187	90.3247
8837875000.0000	12.0951	1.8091	1.0090	0.0177	0.4213	89.7082
8840500000.0000	12.0841	1.7962	1.0098	0.0245	0.4223	90.2504
8843125000.0000	12.1291	1.8052	1.0104	0.0125	0.4231	89.2896
8845750000.0000	12.0814	1.8230	1.0068	0.0115	0.4200	89.1991
8848375000.0000	12.0848	1.8056	1.0053	0.0156	0.4197	89.6096
8851000000.0000	12.0777	1.7819	0.9998	0.0180	0.4165	90.0199
8853625000.0000	12.0661	1.8176	1.0042	0.0092	0.4187	89.0968
8856250000.0000	12.1155	1.7857	1.0031	0.0256	0.4202	90.4401
8858875000.0000	12.0822	1.7994	1.0040	0.0059	0.4193	88.9431
8861500000.0000	12.1353	1.7889	1.0058	0.0200	0.4225	89.9380
8864125000.0000	12.0359	1.7986	1.0025	0.0107	0.4182	89.3224
8866750000.0000	12.0866	1.8637	1.0143	0.0008	0.4263	87.9569
8869375000.0000	12.0716	1.8050	1.0086	0.0083	0.4231	88.9560
8872000000.0000	12.1021	1.8053	0.9947	0.0102	0.4152	89.3204
8874625000.0000	12.0743	1.7639	0.9984	0.0145	0.4176	89.8159
8877250000.0000	12.0686	1.7683	1.0005	0.0142	0.4191	89.7165
8879875000.0000	12.1398	1.7871	1.0026	0.0241	0.4226	90.2362
8882500000.0000	12.1128	1.7683	1.0043	0.0164	0.4230	89.7615
8885125000.0000	12.0707	1.8025	0.9905	0.0086	0.4131	89.2724
8887750000.0000	12.0933	1.7904	1.0111	0.0150	0.4274	89.3824
8890375000.0000	12.1578	1.8549	1.0297	0.0014	0.4403	87.5616
8893000000.0000	12.0863	1.7687	0.9960	0.0131	0.4180	89.6525
8895625000.0000	12.1173	1.7528	0.9982	0.0347	0.4216	91.2600
8898250000.0000	12.1624	1.8226	1.0163	0.0309	0.4343	90.1657
8900875000.0000	12.1069	1.8339	1.0020	0.0226	0.4235	89.7844
8903500000.0000	12.1886	1.8208	1.0187	0.0306	0.4370	90.0784
8906125000.0000	12.1248	1.8368	1.0136	0.0118	0.4313	88.7150
8908750000.0000	12.0941	1.8219	1.0058	0.0142	0.4260	89.1475
8911375000.0000	12.1098	1.8321	1.0067	0.0217	0.4276	89.5932
8914000000.0000	12.1063	1.8120	1.0047	0.0272	0.4269	90.1512
8916625000.0000	12.1355	1.8338	1.0075	0.0292	0.4297	90.0821
8919250000.0000	12.1355	1.8171	1.0098	0.0260	0.4313	89.8960
8921875000.0000	12.1202	1.8394	1.0045	0.0198	0.4273	89.3997
8924500000.0000	12.1385	1.8357	1.0102	0.0218	0.4318	89.4332
8927125000.0000	12.1267	1.8356	1.0131	0.0202	0.4337	89.2514
8929750000.0000	12.1001	1.8345	1.0053	0.0227	0.4284	89.6054
8932375000.0000	12.0984	1.8416	1.0009	0.0211	0.4256	89.5244
8935000000.0000	12.0960	1.8275	1.0093	0.0261	0.4317	89.8043
8937625000.0000	12.0821	1.8420	1.0084	0.0185	0.4306	89.1700
8940250000.0000	12.1128	1.8074	1.0118	0.0367	0.4350	90.6552
8942875000.0000	12.1147	1.8222	1.0130	0.0256	0.4354	89.6859
8945500000.0000	12.1338	1.8518	1.0176	0.0238	0.4390	89.2465
8948125000.0000	12.1531	1.7907	1.0094	0.0365	0.4351	90.7434
8950750000.0000	12.0833	1.7767	0.9898	0.0270	0.4204	90.5144
8953375000.0000	12.1508	1.8585	1.0313	0.0256	0.4497	89.0014
8956000000.0000	12.0618	1.8565	1.0031	0.0045	0.4276	88.1044
8958625000.0000	12.0949	1.8510	1.0151	0.0163	0.4373	88.7112
8961250000.0000	12.0802	1.8093	1.0100	0.0427	0.4358	91.0686
8963875000.0000	12.0948	1.8310	1.0052	0.0162	0.4313	89.0093
8966500000.0000	12.0467	1.8198	1.0120	0.0235	0.4356	89.5078
8969125000.0000	12.0686	1.7778	1.0072	0.0274	0.4335	90.1408
8971750000.0000	12.0933	1.7773	1.0067	0.0200	0.4334	89.5725
8974375000.0000	12.0552	1.8010	0.9914	0.0251	0.4231	90.1121
8977000000.0000	12.0990	1.7925	1.0041	0.0276	0.4328	90.0761
8979625000.0000	12.0998	1.7728	0.9978	0.0230	0.4286	89.9666
8982250000.0000	12.0836	1.8436	1.0084	0.0140	0.4349	88.6294
8984875000.0000	12.0632	1.8059	0.9920	0.0112	0.4237	88.9983
8987500000.0000	12.0711	1.8322	1.0093	0.0049	0.4352	87.9995
8990125000.0000	12.0758	1.8176	1.0008	0.0056	0.4300	88.3045
8992750000.0000	12.0573	1.8022	1.0001	0.0184	0.4302	89.3585
8995375000.0000	12.0492	1.7757	0.9880	0.0170	0.4223	89.6551
8998000000.0000	12.0626	1.7921	1.0016	0.0108	0.4314	88.8003
9000625000.0000	12.0673	1.7812	0.9992	0.0136	0.4304	89.1159
9003250000.0000	12.0559	1.7973	0.9885	0.0143	0.4233	89.2762
9005875000.0000	12.0758	1.7992	0.9938	0.0176	0.4277	89.3817
9008500000.0000	12.0449	1.7919	1.0040	0.0122	0.4338	88.8239
9011125000.0000	12.0211	1.7872	0.9923	0.0108	0.4257	88.9955
9013750000.0000	12.0619	1.7728	0.9984	0.0212	0.4315	89.7014
9016375000.0000	12.0698	1.7904	1.0092	0.0190	0.4391	89.1886
9019000000.0000	12.0488	1.7882	0.9926	0.0122	0.4273	89.0370
9021625000.0000	12.0532	1.8210	0.9997	0.0106	0.4323	88.5478
9024250000.0000	12.0632	1.8049	1.0031	0.0243	0.4360	89.5949
9026875000.0000	12.0295	1.8100	1.0130	0.0233	0.4422	89.2867
9029500000.0000	12.0677	1.7940	1.0169	0.0136	0.4453	88.5320
9032125000.0000	12.0184	1.8141	1.0072	0.0141	0.4379	88.6759
9034750000.0000	12.0705	1.7442	1.0048	0.0313	0.4390	90.4457
9037375000.0000	12.0377	1.8190	1.0131	0.0081	0.4425	88.0243
9040000000.0000	12.0382	1.7910	1.0013	0.0163	0.4354	89.0571
9042625000.0000	12.0284	1.8073	1.0015	0.0230	0.4360	89.4546
9045250000.0000	12.0254	1.7989	1.0052	0.0204	0.4385	89.2301
9047875000.0000	12.1073	1.8428	1.0335	0.0124	0.4597	87.6294
9050500000.0000	12.0431	1.8195	0.9919	0.0109	0.4297	88.6221
9053125000.0000	12.0664	1.8094	1.0019	0.0164	0.4377	88.8589
9055750000.0000	12.0099	1.7783	0.9901	0.0218	0.4292	89.7360
9058375000.0000	12.0469	1.8146	0.9961	0.0106	0.4334	88.5079
9061000000.0000	12.0837	1.8004	1.0110	0.0351	0.4465	90.1350
9063625000.0000	12.0517	1.8330	1.0200	0.0129	0.4507	88.0124
9066250000.0000	12.0846	1.8069	1.0153	0.0261	0.4494	89.2741
9068875000.0000	12.0874	1.8140	1.0124	0.0226	0.4475	89.0007
9071500000.0000	12.0512	1.7794	0.9985	0.0238	0.4374	89.6273
9074125000.0000	12.0615	1.8197	1.0154	0.0135	0.4489	88.1890
9076750000.0000	12.0880	1.8082	1.0100	0.0235	0.4467	89.1282
9079375000.0000	12.0692	1.8113	1.0076	0.0189	0.4446	88.8014
9082000000.0000	12.0576	1.7878	1.0023	0.0268	0.4415	89.6793
9084625000.0000	12.0680	1.8084	1.0072	0.0154	0.4446	88.5365
9087250000.0000	12.0593	1.7846	1.0084	0.0236	0.4461	89.3026
9089875000.0000	12.0855	1.8158	1.0144	0.0292	0.4516	89.3752
9092500000.0000	12.0610	1.8072	1.0081	0.0079	0.4453	87.9182
9095125000.0000	12.1101	1.8040	1.0067	0.0334	0.4476	89.9166
9097750000.0000	12.0622	1.8160	1.0021	0.0158	0.4423	88.5730
9100375000.0000	12.0517	1.7822	0.9939	0.0226	0.4372	89.4886
9103000000.0000	12.0661	1.8015	1.0166	0.0193	0.4534	88.5979
9105625000.0000	12.0464	1.7828	1.0089	0.0170	0.4476	88.7136
9108250000.0000	12.0272	1.8125	0.9989	0.0170	0.4405	88.7351
9110875000.0000	12.0552	1.7981	0.9955	0.0190	0.4392	89.0291
9113500000.0000	12.0544	1.8539	0.9990	0.0067	0.4409	87.6296
9116125000.0000	12.0278	1.7918	1.0169	0.0098	0.4535	87.8845
9118750000.0000	12.0492	1.7661	1.0018	0.0296	0.4451	89.9097
9121375000.0000	11.9919	1.7745	1.0006	0.0149	0.4422	88.7551
9124000000.0000	12.0775	1.8102	1.0121	0.0021	0.4515	87.1889
9126625000.0000	12.0795	1.7649	1.0124	0.0439	0.4552	90.8104
9129250000.0000	12.0663	1.7942	1.0115	0.0290	0.4534	89.4089
9131875000.0000	12.0589	1.7641	1.0022	0.0317	0.4472	90.0194
9134500000.0000	12.0131	1.7789	0.9972	0.0057	0.4410	88.0111
9137125000.0000	12.0250	1.7930	0.9896	0.0158	0.4370	88.8434
9139750000.0000	12.0288	1.7841	1.0030	0.0171	0.4467	88.6998
9142375000.0000	12.0707	1.7630	0.9922	0.0307	0.4414	90.1099
9145000000.0000	12.0193	1.7579	0.9921	0.0149	0.4393	88.9234
9147625000.0000	12.0424	1.7960	1.0146	0.0201	0.4564	88.5567
9150250000.0000	12.0089	1.8377	1.0336	0.0085	0.4686	86.9203
9152875000.0000	12.0107	1.8244	1.0131	0.0044	0.4539	87.1665
9155500000.0000	12.0328	1.8279	1.0111	0.0214	0.4545	88.4898
9158125000.0000	11.9943	1.7757	1.0081	0.0042	0.4507	87.5788
9160750000.0000	11.9793	1.7979	1.0044	-0.0004	0.4476	87.1641
9163375000.0000	11.9842	1.8154	1.0089	0.0129	0.4521	87.9517
9166000000.0000	12.0574	1.7942	1.0072	0.0221	0.4536	88.7941
9168625000.0000	12.0430	1.7765	1.0053	0.0167	0.4518	88.5302
9171250000.0000	12.0356	1.7968	1.0067	0.0142	0.4527	88.1490
9173875000.0000	12.0132	1.7636	1.0021	0.0114	0.4490	88.2661
9176500000.0000	12.0476	1.8165	1.0057	0.0053	0.4521	87.3131
9179125000.0000	12.0354	1.7953	0.9947	0.0173	0.4452	88.6418
9181750000.0000	11.9813	1.7633	1.0075	0.0173	0.4534	88.6043
9184375000.0000	12.0851	1.7366	1.0051	0.0308	0.4555	89.8465
9187000000.0000	12.0590	1.7999	1.0095	0.0106	0.4567	87.6891
9189625000.0000	12.0526	1.7538	1.0094	0.0192	0.4575	88.6866
9192250000.0000	11.9964	1.8000	1.0090	0.0236	0.4565	88.7614
9194875000.0000	12.0693	1.8118	1.0089	0.0233	0.4583	88.5929
9197500000.0000	11.9889	1.7826	1.0086	0.0183	0.4562	88.4436
9200125000.0000	12.0550	1.8025	1.0070	0.0280	0.4576	89.0636
9202750000.0000	11.9891	1.7812	1.0181	0.0180	0.4637	88.1849
9205375000.0000	12.0612	1.8084	1.0049	0.0233	0.4564	88.6621
9208000000.0000	12.0431	1.8137	1.0095	0.0155	0.4590	87.8890
9210625000.0000	12.0441	1.8171	1.0191	0.0227	0.4669	88.2129
9213250000.0000	12.0448	1.8589	1.0335	0.0219	0.4779	87.4873
9215875000.0000	11.9992	1.7944	1.0055	0.0012	0.4549	86.9861
9218500000.0000	12.0499	1.7924	1.0075	0.0244	0.4596	88.7582
9221125000.0000	12.0236	1.7977	1.0058	0.0120	0.4570	87.7622
9223750000.0000	12.0382	1.7604	1.0013	0.0211	0.4551	88.8294
9226375000.0000	12.0517	1.8097	1.0060	0.0285	0.4597	88.9694
9229000000.0000	12.0308	1.8300	1.0302	0.0278	0.4775	88.1960
9231625000.0000	12.0581	1.7908	1.0101	0.0333	0.4639	89.3768
9234250000.0000	12.0241	1.8199	1.0218	0.0255	0.4714	88.2624
9236875000.0000	12.0564	1.7925	1.0099	0.0259	0.4637	88.7304
9239500000.0000	12.0452	1.8215	1.0113	0.0149	0.4638	87.5866
9242125000.0000	12.0343	1.8374	1.0164	0.0240	0.4683	88.0953
9244750000.0000	12.0126	1.8381	1.0175	0.0211	0.4687	87.8278
9247375000.0000	11.9923	1.8274	1.0116	0.0125	0.4634	87.3533
9250000000.0000	12.0576	1.8701	1.0075	0.0184	0.4626	87.5655
9252625000.0000	12.0412	1.8462	1.0178	0.0320	0.4714	88.6044
9255250000.0000	12.0432	1.8010	1.0198	0.0210	0.4724	87.9531
9257875000.0000	12.0250	1.8137	1.0068	0.0213	0.4625	88.2031
9260500000.0000	12.0319	1.7822	1.0051	0.0141	0.4613	87.8502
9263125000.0000	12.0366	1.8238	1.0068	0.0068	0.4623	86.9164
9265750000.0000	11.9904	1.7440	1.0086	0.0355	0.4652	89.8238
9268375000.0000	12.0606	1.7725	1.0190	0.0314	0.4747	88.9763
9271000000.0000	11.9882	1.8491	1.0085	0.0227	0.4645	87.9881
9273625000.0000	12.0569	1.8019	1.0085	0.0211	0.4664	88.1218
9276250000.0000	12.0541	1.8444	0.9946	0.0095	0.4552	87.2084
9278875000.0000	12.0584	1.8066	1.0088	0.0335	0.4683	89.1052
9281500000.0000	12.0285	1.7918	1.0075	0.0253	0.4662	88.5535
9284125000.0000	12.0412	1.7909	1.0004	0.0292	0.4618	89.0335
9286750000.0000	12.0850	1.7865	1.0067	0.0271	0.4677	88.7029
9289375000.0000	12.0532	1.8303	1.0199	0.0294	0.4774	88.2695
9292000000.0000	12.0963	1.7808	1.0008	0.0305	0.4645	89.1348
9294625000.0000	12.0324	1.7925	1.0106	0.0258	0.4702	88.4516
9297250000.0000	12.0297	1.8138	1.0130	0.0184	0.4715	87.6092
9299875000.0000	12.0133	1.8299	1.0192	0.0126	0.4756	86.8593
9302500000.0000	12.0353	1.8089	1.0091	0.0243	0.4698	88.2040
9305125000.0000	12.0166	1.8359	1.0170	0.0214	0.4753	87.5763
9307750000.0000	12.0063	1.8183	1.0067	0.0119	0.4668	87.1653
9310375000.0000	12.0441	1.8054	1.0125	0.0311	0.4741	88.6811
9313000000.0000	12.0734	1.8141	1.0258	0.0319	0.4856	88.3286
9315625000.0000	11.9625	1.8131	1.0062	0.0194	0.4669	87.8288
9318250000.0000	12.0175	1.8489	1.0089	0.0150	0.4701	87.0843
9320875000.0000	12.0782	1.7623	1.0087	0.0293	0.4733	88.8644
9323500000.0000	12.0388	1.7321	1.0049	0.0366	0.4703	89.8255
9326125000.0000	12.0289	1.8567	1.0193	0.0283	0.4805	87.8305
9328750000.0000	12.0481	1.8080	1.0161	0.0213	0.4783	87.6463
9331375000.0000	11.9955	1.8095	1.0180	0.0349	0.4799	88.7765
9334000000.0000	12.0053	1.8171	1.0055	0.0302	0.4705	88.6025
9336625000.0000	12.0014	1.7999	1.0086	0.0166	0.4719	87.4959
9339250000.0000	11.9638	1.7719	1.0129	0.0283	0.4755	88.6050
9341875000.0000	11.9895	1.8168	1.0272	0.0260	0.4874	87.6860
9344500000.0000	12.0172	1.7465	1.0179	0.0240	0.4811	88.2350
9347125000.0000	12.0551	1.8058	1.0118	0.0214	0.4773	87.6773
9349750000.0000	12.0082	1.7737	1.0122	0.0214	0.4768	87.9293
9352375000.0000	12.0215	1.7921	1.0204	0.0233	0.4840	87.7261
9355000000.0000	11.9724	1.8496	1.0098	0.0203	0.4744	87.3443
9357625000.0000	12.0399	1.7881	1.0127	0.0142	0.4782	87.1308
9360250000.0000	12.0384	1.7852	1.0033	0.0272	0.4724	88.4933
9362875000.0000	11.9682	1.8206	1.0265	0.0215	0.4884	87.2000
9365500000.0000	12.0218	1.8514	1.0313	0.0379	0.4955	88.2077
9368125000.0000	12.0233	1.8219	1.0280	0.0231	0.4918	87.2053
9370750000.0000	12.0382	1.8101	1.0197	0.0326	0.4869	88.3164
9373375000.0000	12.0110	1.7832	1.0151	0.0274	0.4824	88.1826
9376000000.0000	12.0189	1.8168	1.0228	0.0237	0.4886	87.3937
9378625000.0000	12.0291	1.8031	1.0097	0.0182	0.4784	87.3389
9381250000.0000	12.0251	1.7970	1.0167	0.0217	0.4845	87.4971
9383875000.0000	12.0427	1.7961	1.0163	0.0347	0.4861	88.6286
9386500000.0000	12.0261	1.8267	1.0179	0.0273	0.4865	87.6994
9389125000.0000	12.0445	1.8115	1.0213	0.0286	0.4902	87.8147
9391750000.0000	12.0494	1.8431	1.0194	0.0316	0.4893	87.8679
9394375000.0000	12.0537	1.7464	1.0091	0.0404	0.4826	89.6414
9397000000.0000	12.0250	1.8007	1.0135	0.0261	0.4842	87.8490
9399625000.0000	12.0247	1.8452	1.0170	0.0268	0.4872	87.4696
9402250000.0000	12.0115	1.8209	1.0072	0.0318	0.4800	88.3485
9404875000.0000	12.0486	1.7914	1.0140	0.0294	0.4865	88.1405
9407500000.0000	12.0265	1.8428	1.0259	0.0197	0.4947	86.5850
9410125000.0000	12.0528	1.8251	1.0155	0.0356	0.4890	88.3684
9412750000.0000	12.0268	1.8830	1.0140	0.0199	0.4857	86.5993
9415375000.0000	12.0204	1.8438	1.0129	0.0217	0.4853	87.0680
9418000000.0000	12.0113	1.8224	1.0121	0.0377	0.4863	88.6524
9420625000.0000	12.0514	1.8620	1.0228	0.0191	0.4944	86.3738
9423250000.0000	12.0220	1.8076	1.0210	0.0339	0.4940	88.1631
9425875000.0000	12.0193	1.8382	1.0261	0.0279	0.4978	87.2452
9428500000.0000	12.0557	1.8445	1.0243	0.0245	0.4973	86.8986
9431125000.0000	12.0444	1.7926	1.0188	0.0360	0.4941	88.4787
9433750000.0000	12.0455	1.8430	1.0265	0.0217	0.4992	86.5802
9436375000.0000	12.0200	1.8513	1.0285	0.0301	0.5012	87.2189
9439000000.0000	12.0665	1.8528	1.0236	0.0246	0.4984	86.7933
9441625000.0000	12.0323	1.8446	1.0300	0.0296	0.5034	87.1413
9444250000.0000	12.0331	1.8221	1.0210	0.0281	0.4963	87.4150
9446875000.0000	12.0333	1.8773	1.0297	0.0360	0.5045	87.4413
9449500000.0000	12.0136	1.8431	1.0269	0.0153	0.4999	85.9465
9452125000.0000	12.0054	1.8427	1.0289	0.0207	0.5022	86.3618
9454750000.0000	12.0383	1.8661	1.0273	0.0290	0.5029	86.9203
9457375000.0000	12.0279	1.7924	1.0157	0.0308	0.4938	87.9712
9460000000.0000	12.0114	1.8421	1.0179	0.0184	0.4942	86.4224
9462625000.0000	12.0299	1.8368	1.0275	0.0202	0.5030	86.3124
9465250000.0000	12.0727	1.8381	1.0278	0.0325	0.5062	87.3547
9467875000.0000	12.0046	1.8638	1.0299	0.0184	0.5047	85.8749
9470500000.0000	12.0234	1.8045	1.0236	0.0250	0.5012	87.0728
9473125000.0000	12.0736	1.8700	1.0303	0.0361	0.5096	87.3137
9475750000.0000	12.0260	1.8002	1.0215	0.0275	0.5005	87.3583
9478375000.0000	12.0457	1.7883	1.0148	0.0351	0.4966	88.3012
9481000000.0000	11.9985	1.8858	1.0295	0.0181	0.5057	85.6171
9483625000.0000	12.0381	1.7784	1.0197	0.0387	0.5015	88.5629
9486250000.0000	12.0339	1.7614	1.0264	0.0317	0.5066	87.8648
9488875000.0000	12.0450	1.8065	1.0168	0.0276	0.4987	87.3593
9491500000.0000	12.0022	1.8566	1.0229	0.0175	0.5018	85.9174
9494125000.0000	11.9613	1.8413	1.0171	0.0238	0.4968	86.7875
9496750000.0000	12.0239	1.8589	1.0291	0.0161	0.5080	85.5380
9499375000.0000	12.0653	1.7645	1.0160	0.0310	0.5005	87.9507
9502000000.0000	12.0196	1.8330	1.0187	0.0260	0.5011	86.9016
9504625000.0000	12.0752	1.8108	1.0159	0.0402	0.5022	88.4134
9507250000.0000	12.0583	1.8089	1.0214	0.0348	0.5061	87.7705
9509875000.0000	12.0687	1.8057	1.0144	0.0315	0.5006	87.6604
9512500000.0000	12.0452	1.8212	1.0188	0.0268	0.5033	86.9879
9515125000.0000	11.9900	1.8312	1.0164	0.0225	0.4995	86.6233
9517750000.0000	12.0202	1.8238	1.0240	0.0282	0.5077	86.9436
9520375000.0000	12.0095	1.8443	1.0151	0.0247	0.4999	86.7068
9523000000.0000	12.0653	1.8528	1.0121	0.0241	0.4993	86.5958
9525625000.0000	12.0394	1.8462	1.0137	0.0304	0.5008	87.1933
9528250000.0000	12.0098	1.8411	1.0141	0.0285	0.5004	87.0661
9530875000.0000	12.0166	1.7900	1.0156	0.0187	0.5013	86.5097
9533500000.0000	12.0556	1.8586	1.0158	0.0381	0.5049	87.6965
9536125000.0000	12.0198	1.8350	1.0254	0.0227	0.5107	86.1957
9538750000.0000	12.0283	1.7875	1.0079	0.0323	0.4977	87.9440
9541375000.0000	11.9998	1.8525	1.0133	0.0220	0.5004	86.3437
9544000000.0000	12.0290	1.8323	1.0201	0.0283	0.5081	86.8386
9546625000.0000	12.0598	1.8004	1.0099	0.0386	0.5019	88.3084
9549250000.0000	12.0294	1.8651	1.0229	0.0284	0.5111	86.4691
9551875000.0000	11.9979	1.8071	1.0041	0.0340	0.4954	88.0051
9554500000.0000	12.0535	1.7906	1.0162	0.0306	0.5072	87.4240
9557125000.0000	12.0230	1.8271	1.0359	0.0331	0.5237	86.8037
9559750000.0000	11.9733	1.7854	1.0038	0.0319	0.4952	87.9749
9562375000.0000	12.0203	1.8235	1.0237	0.0341	0.5139	87.2572
9565000000.0000	12.0291	1.9048	1.0312	0.0243	0.5196	85.4230
9567625000.0000	12.0207	1.8020	1.0155	0.0383	0.5081	88.0342
9570250000.0000	12.0278	1.8367	1.0225	0.0364	0.5144	87.3528
9572875000.0000	12.0166	1.8726	1.0345	0.0281	0.5237	85.9014
9575500000.0000	12.0217	1.8783	1.0320	0.0308	0.5223	86.1699
9578125000.0000	12.0223	1.7924	1.0225	0.0343	0.5151	87.4816
9580750000.0000	12.0099	1.8563	1.0211	0.0316	0.5134	86.7309
9583375000.0000	11.9912	1.8449	1.0238	0.0247	0.5147	86.1095
9586000000.0000	12.0060	1.8068	1.0225	0.0382	0.5160	87.7048
9588625000.0000	11.9969	1.8022	1.0266	0.0296	0.5187	86.7982
9591250000.0000	11.9973	1.8330	1.0238	0.0244	0.5160	86.1207
9593875000.0000	12.0160	1.8079	1.0227	0.0283	0.5164	86.6934
9596500000.0000	12.0151	1.8447	1.0214	0.0278	0.5154	86.3713
9599125000.0000	12.0255	1.8220	1.0188	0.0246	0.5136	86.3003
9601750000.0000	12.0051	1.8233	1.0206	0.0302	0.5155	86.7723
9604375000.0000	12.0183	1.8277	1.0192	0.0304	0.5151	86.7725
9607000000.0000	12.0110	1.8129	1.0216	0.0325	0.5175	87.0104
9609625000.0000	12.0207	1.8342	1.0260	0.0277	0.5215	86.2233
9612250000.0000	12.0045	1.8048	1.0156	0.0289	0.5124	86.8960
9614875000.0000	12.0343	1.8274	1.0220	0.0237	0.5186	85.9720
9617500000.0000	11.9867	1.8060	1.0184	0.0197	0.5140	85.9151
9620125000.0000	12.0191	1.8395	1.0261	0.0222	0.5222	85.5879
9622750000.0000	12.0338	1.8646	1.0283	0.0367	0.5266	86.6669
9625375000.0000	12.0266	1.8255	1.0140	0.0352	0.5141	87.2746
9628000000.0000	12.0434	1.8474	1.0275	0.0352	0.5268	86.6531
9630625000.0000	12.0129	1.8942	1.0220	0.0165	0.5190	84.6748
9633250000.0000	12.0147	1.8096	1.0304	0.0339	0.5291	86.7673
9635875000.0000	12.0594	1.7802	1.0305	0.0437	0.5323	87.9333
9638500000.0000	12.0244	1.8342	1.0166	0.0281	0.5172	86.3719
9641125000.0000	11.9836	1.8504	1.0116	0.0249	0.5114	86.1181
9643750000.0000	11.9588	1.8128	1.0097	0.0220	0.5092	86.2227
9646375000.0000	12.0268	1.8592	1.0189	0.0235	0.5197	85.5997
9649000000.0000	12.0689	1.8278	1.0241	0.0339	0.5274	86.6560
9651625000.0000	11.9734	1.7674	1.0181	0.0400	0.5201	88.0295
9654250000.0000	12.0169	1.8249	1.0202	0.0395	0.5235	87.3637
9656875000.0000	12.0879	1.8086	1.0274	0.0407	0.5329	87.3318
9659500000.0000	12.0395	1.7931	1.0147	0.0452	0.5209	88.3237
9662125000.0000	12.0314	1.8384	1.0157	0.0378	0.5209	87.1626
9664750000.0000	12.0184	1.8647	1.0177	0.0259	0.5211	85.7203
9667375000.0000	12.0160	1.8097	1.0231	0.0234	0.5260	85.7584
9670000000.0000	12.0169	1.8061	1.0145	0.0345	0.5201	87.1207
9672625000.0000	12.0122	1.8448	1.0161	0.0284	0.5209	86.1389
9675250000.0000	12.0026	1.8183	1.0110	0.0286	0.5165	86.5274
9677875000.0000	12.0172	1.8393	1.0160	0.0275	0.5216	86.0641
9680500000.0000	12.0288	1.8234	1.0220	0.0349	0.5286	86.7129
9683125000.0000	12.0194	1.8387	1.0164	0.0267	0.5226	85.9496
9685750000.0000	12.0217	1.8326	1.0181	0.0334	0.5253	86.5753
9688375000.0000	12.0130	1.8270	1.0202	0.0282	0.5267	86.0500
9691000000.0000	12.0202	1.8267	1.0149	0.0313	0.5229	86.4968
9693625000.0000	12.0024	1.8409	1.0154	0.0301	0.5229	86.2477
9696250000.0000	12.0189	1.8066	1.0158	0.0335	0.5247	86.8281
9698875000.0000	11.9939	1.8232	1.0169	0.0229	0.5239	85.6240
9701500000.0000	11.9975	1.8181	1.0088	0.0293	0.5180	86.5223
9704125000.0000	12.0069	1.8038	1.0144	0.0323	0.5240	86.7468
9706750000.0000	12.0299	1.8259	1.0303	0.0293	0.5391	85.7136
9709375000.0000	12.0359	1.8116	1.0241	0.0363	0.5349	86.7101
9712000000.0000	12.0580	1.8282	1.0260	0.0388	0.5380	86.7193
9714625000.0000	12.0332	1.8525	1.0108	0.0228	0.5217	85.4232
9717250000.0000	12.0262	1.8230	1.0278	0.0453	0.5402	87.3775
9719875000.0000	11.9872	1.8105	1.0095	0.0217	0.5198	85.7313
9722500000.0000	11.9875	1.7496	0.9982	0.0293	0.5112	87.3092
9725125000.0000	12.0186	1.8427	1.0205	0.0246	0.5316	85.3160
9727750000.0000	11.9586	1.7679	0.9992	0.0287	0.5117	87.0625
9730375000.0000	12.0234	1.8175	1.0242	0.0353	0.5374	86.4446
9733000000.0000	12.0087	1.8163	1.0191	0.0313	0.5320	86.2208
9735625000.0000	11.9941	1.7537	0.9985	0.0374	0.5142	87.9950
9738250000.0000	11.9878	1.8169	1.0102	0.0224	0.5229	85.6038
9740875000.0000	11.9740	1.8195	1.0113	0.0170	0.5232	85.0310
9743500000.0000	12.0028	1.8685	1.0175	0.0146	0.5296	84.1296
9746125000.0000	11.9932	1.8221	1.0087	0.0257	0.5232	85.8810
9748750000.0000	11.9910	1.8375	1.0115	0.0141	0.5245	84.5174
9751375000.0000	11.9909	1.8328	1.0146	0.0264	0.5292	85.6365
9754000000.0000	11.9919	1.8102	1.0229	0.0229	0.5369	85.2050
9756625000.0000	11.9389	1.8027	1.0013	0.0181	0.5154	85.5378
9759250000.0000	11.9852	1.7979	1.0068	0.0210	0.5225	85.6108
9761875000.0000	11.9876	1.7759	1.0041	0.0282	0.5214	86.5824
9764500000.0000	11.9928	1.8295	1.0166	0.0189	0.5320	84.7747
9767125000.0000	11.9959	1.8095	1.0182	0.0287	0.5352	85.8518
9769750000.0000	11.9917	1.8294	1.0142	0.0229	0.5310	85.2200
9772375000.0000	11.9599	1.8372	1.0182	0.0179	0.5332	84.5515
9775000000.0000	12.0533	1.7970	1.0143	0.0370	0.5357	86.8263
9777625000.0000	12.0124	1.7761	1.0097	0.0274	0.5293	86.1985
9780250000.0000	12.0076	1.8507	1.0179	0.0236	0.5364	84.8884
9782875000.0000	12.0107	1.8151	1.0175	0.0259	0.5368	85.4283
9785500000.0000	11.9859	1.8286	1.0179	0.0226	0.5363	84.9824
9788125000.0000	12.0044	1.8557	0.9966	0.0291	0.5185	86.0530
9790750000.0000	11.9678	1.7875	1.0089	0.0287	0.5289	86.2338
9793375000.0000	12.0305	1.7536	1.0233	0.0195	0.5439	85.0347
9796000000.0000	12.0636	1.8758	1.0115	0.0228	0.5343	84.6325
9798625000.0000	12.0359	1.8625	1.0179	0.0271	0.5403	84.9818
9801250000.0000	12.0012	1.8582	1.0300	0.0241	0.5505	84.3224
9803875000.0000	12.0285	1.8101	1.0196	0.0541	0.5462	88.2097
9806500000.0000	12.0235	1.8164	1.0118	0.0355	0.5365	86.4178
9809125000.0000	11.9818	1.8405	1.0109	0.0338	0.5343	86.0940
9811750000.0000	12.0308	1.8309	1.0101	0.0313	0.5354	85.8784
9814375000.0000	12.0177	1.8312	1.0095	0.0317	0.5347	85.9372
9817000000.0000	12.0029	1.7875	1.0012	0.0388	0.5279	87.3197
9819625000.0000	12.0185	1.8561	1.0180	0.0283	0.5430	85.0373
9822250000.0000	12.0006	1.8506	1.0226	0.0282	0.5470	84.9280
9824875000.0000	12.0165	1.8635	1.0232	0.0327	0.5492	85.2187
9827500000.0000	12.0276	1.8335	1.0202	0.0310	0.5469	85.3880
9830125000.0000	11.9943	1.8358	1.0137	0.0257	0.5392	85.0720
9832750000.0000	12.0353	1.9064	1.0403	0.0369	0.5682	84.5661
9835375000.0000	11.9966	1.8294	1.0122	0.0283	0.5390	85.4016
9838000000.0000	12.0184	1.8481	1.0190	0.0336	0.5472	85.5115
9840625000.0000	11.9741	1.8755	1.0266	0.0215	0.5516	83.7993
9843250000.0000	11.9973	1.8291	1.0127	0.0211	0.5397	84.6042
9845875000.0000	11.9984	1.8666	1.0194	0.0328	0.5478	85.2209
9848500000.0000	12.0077	1.8274	1.0168	0.0383	0.5470	86.2156
9851125000.0000	11.9811	1.8546	1.0252	0.0232	0.5523	84.1232
9853750000.0000	11.9683	1.8546	1.0268	0.0383	0.5558	85.6288
9856375000.0000	12.0112	1.8552	1.0146	0.0301	0.5450	85.1193
9859000000.0000	11.9968	1.8180	1.0149	0.0348	0.5458	85.9465
9861625000.0000	11.9857	1.8362	1.0106	0.0194	0.5396	84.3419
9864250000.0000	11.9966	1.8484	1.0133	0.0346	0.5449	85.6660
9866875000.0000	11.9955	1.8255	1.0173	0.0322	0.5489	85.4727
9869500000.0000	12.0363	1.8272	1.0175	0.0273	0.5502	84.8692
9872125000.0000	11.9835	1.8099	1.0122	0.0310	0.5441	85.6397
9874750000.0000	11.9888	1.7846	1.0191	0.0291	0.5511	85.4167
9877375000.0000	11.9914	1.8502	1.0123	0.0203	0.5437	84.1288
9880000000.0000	12.0227	1.7956	1.0114	0.0337	0.5463	85.9930
9882625000.0000	11.9965	1.8286	1.0064	0.0422	0.5420	86.7689
9885250000.0000	11.9563	1.8093	1.0031	0.0295	0.5361	85.7511
9887875000.0000	12.0051	1.7803	1.0136	0.0292	0.5484	85.5526
9890500000.0000	11.9838	1.8270	0.9967	0.0194	0.5304	84.7091
9893125000.0000	12.0105	1.8300	1.0182	0.0322	0.5540	85.2144
9895750000.0000	12.0164	1.8068	1.0029	0.0367	0.5405	86.4027
9898375000.0000	12.0314	1.7986	1.0149	0.0557	0.5557	88.1298
9901000000.0000	11.9675	1.8426	1.0120	0.0191	0.5457	83.9582
9903625000.0000	11.9831	1.8462	1.0188	0.0252	0.5541	84.2692
9906250000.0000	12.0006	1.7673	0.9937	0.0350	0.5325	86.8423
9908875000.0000	11.9851	1.8532	1.0206	0.0323	0.5577	84.8486
9911500000.0000	12.0193	1.8535	1.0208	0.0412	0.5609	85.7376
9914125000.0000	11.9611	1.8163	1.0079	0.0251	0.5444	84.8774
9916750000.0000	11.9765	1.7278	0.9949	0.0378	0.5347	87.4176
9919375000.0000	11.9140	1.8311	1.0148	0.0220	0.5496	84.2140
9922000000.0000	11.9706	1.8888	1.0156	0.0315	0.5539	84.5443
9924625000.0000	11.9198	1.8290	1.0117	0.0291	0.5484	85.0349
9927250000.0000	11.9702	1.8656	1.0162	0.0356	0.5559	85.1372
9929875000.0000	11.9664	1.8995	1.0192	0.0275	0.5578	83.8439
9932500000.0000	11.9600	1.8657	1.0174	0.0291	0.5566	84.3833
9935125000.0000	12.0083	1.9078	1.0271	0.0318	0.5687	83.8238
9937750000.0000	11.9948	1.8328	1.0195	0.0297	0.5609	84.5957
9940375000.0000	11.9694	1.8453	1.0238	0.0331	0.5651	84.6941
9943000000.0000	12.0107	1.8238	1.0236	0.0259	0.5659	84.0624
9945625000.0000	11.9477	1.8717	1.0192	0.0368	0.5608	85.0131
9948250000.0000	11.9287	1.8606	1.0256	0.0346	0.5667	84.6424
9950875000.0000	11.9791	1.8707	1.0314	0.0367	0.5752	84.4785
9953500000.0000	11.9660	1.8517	1.0389	0.0283	0.5815	83.4659
9956125000.0000	11.9079	1.9061	1.0166	0.0462	0.5596	85.7674
9958750000.0000	11.9796	1.8919	1.0277	0.0306	0.5717	83.6932
9961375000.0000	11.9544	1.8668	1.0264	0.0334	0.5703	84.3054
9964000000.0000	11.9645	1.8678	1.0163	0.0335	0.5609	84.6548
9966625000.0000	11.9787	1.8421	1.0248	0.0236	0.5690	83.4710
9969250000.0000	11.9426	1.8676	1.0222	0.0309	0.5664	84.1444
9971875000.0000	11.9366	1.8728	1.0386	0.0291	0.5829	83.2702
9974500000.0000	11.9980	1.8814	1.0326	0.0313	0.5800	83.5339
9977125000.0000	12.0020	1.8622	1.0279	0.0444	0.5779	85.3378
9979750000.0000	11.9670	1.7973	1.0147	0.0247	0.5607	84.3165
9982375000.0000	11.9827	1.8293	1.0188	0.0353	0.5673	84.9738
9985000000.0000	12.0293	1.8350	1.0194	0.0443	0.5716	85.8221
9987625000.0000	11.9384	1.8454	1.0249	0.0174	0.5697	82.6949
9990250000.0000	11.9907	1.9007	1.0405	0.0391	0.5918	83.7837
9992875000.0000	11.9290	1.8493	1.0290	0.0169	0.5743	82.4192
9995500000.0000	11.9781	1.8673	1.0317	0.0291	0.5813	83.3449
9998125000.0000	11.9429	1.8378	1.0222	0.0219	0.5695	83.2562
10000750000.0000	12.0179	1.7748	1.0163	0.0410	0.5700	86.0654
10003375000.0000	11.9710	1.8193	1.0202	0.0325	0.5711	84.5826
10006000000.0000	11.9554	1.8156	1.0166	0.0232	0.5658	83.7435
10008625000.0000	11.9539	1.8819	1.0299	0.0330	0.5810	83.6438
10011250000.0000	11.9590	1.8397	1.0092	0.0309	0.5603	84.5869
10013875000.0000	11.9841	1.7887	1.0205	0.0287	0.5731	84.3564
10016500000.0000	11.9506	1.9391	1.0150	0.0264	0.5656	82.9188
10019125000.0000	12.0009	1.8946	1.0128	0.0258	0.5658	83.2557
10021750000.0000	11.9822	1.7909	1.0203	0.0315	0.5745	84.6034
10024375000.0000	11.9859	1.8394	1.0154	0.0285	0.5693	83.9529
10027000000.0000	11.9560	1.8961	1.0148	0.0290	0.5677	83.5255
10029625000.0000	11.9841	1.8313	1.0205	0.0289	0.5753	83.8487
10032250000.0000	11.9924	1.8587	1.0194	0.0284	0.5747	83.5377
10034875000.0000	11.9828	1.8051	1.0118	0.0373	0.5685	85.3376
10037500000.0000	12.0185	1.8748	1.0181	0.0364	0.5765	84.2503
10040125000.0000	11.9765	1.8282	1.0262	0.0267	0.5823	83.3529
10042750000.0000	11.9700	1.8068	1.0148	0.0384	0.5724	85.2966
10045375000.0000	11.9647	1.8233	1.0194	0.0429	0.5780	85.4600
10048000000.0000	11.9340	1.8395	1.0244	0.0267	0.5798	83.3202
10050625000.0000	11.9461	1.8405	1.0185	0.0254	0.5744	83.3543
10053250000.0000	11.9560	1.8374	1.0157	0.0414	0.5748	85.2433
10055875000.0000	11.9416	1.8300	1.0233	0.0247	0.5799	83.1692
10058500000.0000	11.9431	1.8564	1.0215	0.0274	0.5788	83.2479
10061125000.0000	11.9710	1.8373	1.0243	0.0352	0.5847	84.1356
10063750000.0000	11.9572	1.8532	1.0249	0.0295	0.5842	83.3199
10066375000.0000	11.8819	1.8519	1.0249	0.0106	0.5784	81.4012
10069000000.0000	11.9335	1.8206	1.0199	0.0199	0.5774	82.7814
10071625000.0000	11.9384	1.8389	1.0297	0.0301	0.5899	83.3049
10074250000.0000	11.9169	1.8570	1.0283	0.0188	0.5859	81.9582
10076875000.0000	11.9915	1.8947	1.0288	0.0343	0.5925	83.1333
10079500000.0000	11.9072	1.8337	1.0337	0.0188	0.5922	81.9292
10082125000.0000	11.9071	1.8228	1.0274	0.0302	0.5878	83.5413
10084750000.0000	11.9451	1.8772	1.0280	0.0247	0.5894	82.2842
10087375000.0000	11.8994	1.8442	1.0166	0.0233	0.5757	82.9791
10090000000.0000	12.0056	1.8991	1.0369	0.0273	0.6029	81.8123
10092625000.0000	11.9388	1.8335	1.0246	0.0298	0.5878	83.3694
10095250000.0000	12.0184	1.9889	1.0469	0.0202	0.6136	79.5900
10097875000.0000	12.0062	1.8884	1.0307	0.0200	0.5962	81.3109
10100500000.0000	11.8866	1.8302	1.0214	0.0198	0.5818	82.4593
10103125000.0000	11.9308	1.8973	1.0343	0.0185	0.5973	81.0028
10105750000.0000	11.9661	1.8477	1.0353	0.0306	0.6028	82.7337
10108375000.0000	11.9292	1.9031	1.0282	0.0224	0.5922	81.5997
10111000000.0000	11.9224	1.8516	1.0266	0.0191	0.5903	81.8057
10113625000.0000	11.9238	1.9046	1.0377	0.0173	0.6021	80.5797
10116250000.0000	12.0011	1.8470	1.0218	0.0259	0.5906	82.6196
10118875000.0000	12.0061	1.8938	1.0318	0.0150	0.6000	80.4691
10121500000.0000	11.9317	1.8686	1.0239	0.0153	0.5887	81.2324
10124125000.0000	11.9479	1.8055	1.0279	0.0168	0.5948	81.7997
10126750000.0000	12.0065	1.8317	1.0276	0.0200	0.5979	81.7737
10129375000.0000	11.9784	1.8651	1.0333	0.0253	0.6041	81.8148
10132000000.0000	12.0082	1.8302	1.0250	0.0316	0.5980	83.1852
10134625000.0000	11.9701	1.8377	1.0274	0.0235	0.5980	82.1113
10137250000.0000	11.9521	1.8259	1.0222	0.0143	0.5904	81.4369
10139875000.0000	11.9710	1.7955	1.0182	0.0205	0.5886	82.5485
10142500000.0000	12.0034	1.8251	1.0245	0.0276	0.5983	82.7133
10145125000.0000	11.9756	1.8046	1.0178	0.0270	0.5902	83.1639
10147750000.0000	11.9991	1.8148	1.0212	0.0275	0.5953	82.9144
10150375000.0000	11.9656	1.8288	1.0281	0.0260	0.6016	82.3434
10153000000.0000	11.9909	1.8367	1.0189	0.0318	0.5940	83.2668
10155625000.0000	12.0193	1.8428	1.0204	0.0376	0.5983	83.7508
10158250000.0000	11.9850	1.8578	1.0290	0.0261	0.6046	81.9202
10160875000.0000	11.9873	1.8621	1.0182	0.0247	0.5930	82.1585
10163500000.0000	12.0168	1.7530	1.0180	0.0340	0.5966	84.3092
10166125000.0000	12.0221	1.8702	1.0231	0.0162	0.5993	80.7859
10168750000.0000	12.0386	1.8396	1.0187	0.0333	0.5988	83.2133
10171375000.0000	12.0215	1.7774	1.0153	0.0272	0.5939	83.2848
10174000000.0000	12.0511	1.8342	1.0168	0.0331	0.5980	83.2692
10176625000.0000	12.0424	1.8730	1.0244	0.0303	0.6059	82.1924
10179250000.0000	11.9579	1.8103	1.0122	0.0377	0.5905	84.3557
10181875000.0000	11.9803	1.7534	1.0118	0.0335	0.5911	84.4147
10184500000.0000	12.0214	1.7980	1.0192	0.0306	0.6009	83.2180
10187125000.0000	12.0194	1.7953	1.0170	0.0311	0.5988	83.3761
10189750000.0000	12.0554	1.8291	1.0252	0.0234	0.6087	81.6749
10192375000.0000	11.9737	1.7764	1.0182	0.0215	0.5974	82.4319
10195000000.0000	12.0038	1.8194	1.0175	0.0277	0.5993	82.6740
10197625000.0000	12.0080	1.8142	1.0159	0.0333	0.5992	83.4264
10200250000.0000	11.9891	1.8025	1.0161	0.0310	0.5985	83.2779
10202875000.0000	11.9974	1.8283	1.0156	0.0256	0.5977	82.3606
10205500000.0000	11.9637	1.8208	1.0223	0.0202	0.6032	81.5609
10208125000.0000	11.9796	1.7996	1.0162	0.0198	0.5976	81.9504
10210750000.0000	11.9684	1.8000	1.0159	0.0227	0.5977	82.2974
10213375000.0000	12.0106	1.7988	1.0140	0.0268	0.5986	82.7765
10216000000.0000	11.9732	1.7752	1.0059	0.0207	0.5875	82.6886
10218625000.0000	11.9723	1.8160	1.0174	0.0210	0.6004	81.7909
10221250000.0000	12.0012	1.8456	1.0252	0.0308	0.6127	82.2176
10223875000.0000	12.0009	1.7617	1.0104	0.0342	0.5973	84.1320
10226500000.0000	11.9840	1.8304	1.0233	0.0246	0.6095	81.7208
10229125000.0000	11.9847	1.8376	1.0172	0.0268	0.6035	82.1435
10231750000.0000	12.0181	1.8744	1.0277	0.0225	0.6164	80.6949
10234375000.0000	11.9620	1.8646	1.0218	0.0101	0.6053	79.7342
10237000000.0000	12.0059	1.8212	1.0184	0.0256	0.6070	82.0169
10239625000.0000	12.0712	1.8616	1.0389	0.0391	0.6371	82.1571
10242250000.0000	11.9821	1.7754	1.0183	0.0339	0.6084	83.5185
10244875000.0000	12.0163	1.8403	1.0259	0.0283	0.6179	81.7185
10247500000.0000	11.9372	1.9315	1.0282	0.0054	0.6120	78.1881
10250125000.0000	11.9204	1.8756	1.0175	0.0112	0.6012	79.9085
10252750000.0000	11.9956	1.7709	1.0105	0.0280	0.6009	83.0774
10255375000.0000	11.9959	1.7864	1.0227	0.0262	0.6149	82.1397
10258000000.0000	11.9694	1.8629	1.0204	0.0134	0.6085	79.9739
10260625000.0000	11.9461	1.8480	1.0295	0.0120	0.6181	79.5640
10263250000.0000	11.9973	1.8261	1.0225	0.0337	0.6172	82.5703
10265875000.0000	12.0577	1.8864	1.0293	0.0263	0.6269	80.5505
10268500000.0000	11.9478	1.8261	1.0211	0.0145	0.6106	80.3982
10271125000.0000	11.9820	1.8443	1.0165	0.0209	0.6084	81.0745
10273750000.0000	11.9877	1.8375	1.0206	0.0161	0.6130	80.3538
10276375000.0000	12.0150	1.8324	1.0286	0.0206	0.6250	80.4793
10279000000.0000	11.9739	1.8685	1.0173	0.0185	0.6096	80.4450
10281625000.0000	11.9485	1.8595	1.0207	0.0172	0.6126	80.2669
10284250000.0000	11.9435	1.8805	1.0240	0.0191	0.6168	80.0985
10286875000.0000	12.0328	1.8791	1.0216	0.0246	0.6201	80.6611
10289500000.0000	11.9828	1.8399	1.0195	0.0218	0.6153	80.9205
10292125000.0000	11.9657	1.8402	1.0231	0.0264	0.6199	81.3185
10294750000.0000	11.9755	1.8547	1.0191	0.0234	0.6155	80.9417
10297375000.0000	11.9872	1.8766	1.0198	0.0249	0.6176	80.8108
10300000000.0000	11.9972	1.8605	1.0180	0.0292	0.6173	81.5512
10302625000.0000	11.9952	1.8595	1.0260	0.0348	0.6282	81.8535
10305250000.0000	11.9711	1.8428	1.0214	0.0286	0.6209	81.5083
10307875000.0000	12.0000	1.8723	1.0182	0.0215	0.6175	80.4034
10310500000.0000	11.9843	1.8321	1.0258	0.0331	0.6286	81.9069
10313125000.0000	11.9997	1.8498	1.0209	0.0330	0.6239	81.8760
10315750000.0000	12.0331	1.7986	1.0166	0.0372	0.6220	83.0953
10318375000.0000	12.0141	1.9143	1.0275	0.0199	0.6304	79.1833
10321000000.0000	12.0024	1.8608	1.0253	0.0230	0.6286	80.2486
10323625000.0000	11.9589	1.8271	1.0112	0.0299	0.6119	82.1729
10326250000.0000	11.9574	1.8459	1.0053	0.0397	0.6071	83.4286
10328875000.0000	11.9919	1.7983	1.0160	0.0343	0.6210	82.7144
10331500000.0000	11.9638	1.8784	1.0187	0.0287	0.6217	81.0601
10334125000.0000	11.9821	1.8259	1.0151	0.0385	0.6210	82.9587
10336750000.0000	11.9740	1.8475	1.0170	0.0337	0.6223	82.0240
10339375000.0000	12.0113	1.8167	1.0173	0.0367	0.6257	82.6427
10342000000.0000	11.9740	1.8197	1.0052	0.0371	0.6101	83.2437
10344625000.0000	11.9757	1.8599	1.0216	0.0260	0.6277	80.6488
10347250000.0000	11.9868	1.8163	1.0192	0.0279	0.6265	81.4232
10349875000.0000	11.9259	1.8792	1.0154	0.0174	0.6169	79.7697
10352500000.0000	12.0308	1.8863	1.0246	0.0203	0.6342	79.3132
10355125000.0000	11.9813	1.8443	1.0251	0.0258	0.6341	80.5158
10357750000.0000	11.9773	1.8523	1.0170	0.0272	0.6248	80.9842
10360375000.0000	11.9685	1.8374	1.0229	0.0279	0.6322	80.9422
10363000000.0000	11.9702	1.8707	1.0177	0.0302	0.6267	81.0778
10365625000.0000	11.9587	1.8454	1.0225	0.0273	0.6320	80.7644
10368250000.0000	11.9665	1.8347	1.0232	0.0254	0.6334	80.5757
10370875000.0000	11.9663	1.8349	1.0174	0.0272	0.6272	81.0590
10373500000.0000	11.9459	1.8302	1.0195	0.0234	0.6284	80.5546
10376125000.0000	11.9696	1.8590	1.0209	0.0233	0.6316	80.0875
10378750000.0000	11.9637	1.8494	1.0238	0.0272	0.6361	80.5193
10381375000.0000	11.9525	1.8493	1.0249	0.0243	0.6368	80.1093
10384000000.0000	11.9289	1.8644	1.0254	0.0192	0.6353	79.3265
10386625000.0000	11.9371	1.8809	1.0295	0.0193	0.6412	78.8929
10389250000.0000	11.9588	1.8666	1.0228	0.0284	0.6367	80.4379
10391875000.0000	11.8919	1.8508	1.0193	0.0175	0.6272	79.5799
10394500000.0000	11.8718	1.7896	1.0075	0.0194	0.6136	81.0523
10397125000.0000	11.9331	1.8458	1.0160	0.0159	0.6261	79.4552
10399750000.0000	11.9422	1.8562	1.0241	0.0228	0.6382	79.7388
10402375000.0000	11.9541	1.8361	1.0315	0.0279	0.6497	80.1748
10405000000.0000	11.9732	1.8804	1.0222	0.0260	0.6390	79.8409
10407625000.0000	11.9059	1.8030	1.0031	0.0185	0.6121	80.8251
10410250000.0000	11.8869	1.8582	1.0136	0.0120	0.6222	78.9739
10412875000.0000	11.9757	1.9035	1.0317	0.0222	0.6514	78.5401
10415500000.0000	11.8511	1.8074	1.0041	0.0155	0.6112	80.4290
10418125000.0000	11.9029	1.8665	1.0123	0.0107	0.6226	78.6821
10420750000.0000	11.9098	1.8509	1.0249	0.0190	0.6404	79.1723
10423375000.0000	11.9572	1.8234	1.0292	0.0322	0.6520	80.7954
10426000000.0000	11.9094	1.8410	1.0283	0.0196	0.6458	79.1290
10428625000.0000	11.8992	1.7765	1.0126	0.0251	0.6281	81.3106
10431250000.0000	11.9318	1.8369	1.0246	0.0264	0.6449	80.1104
10433875000.0000	11.8952	1.8011	1.0160	0.0219	0.6321	80.4381
10436500000.0000	11.8883	1.8588	1.0275	0.0163	0.6448	78.5108
10439125000.0000	11.9154	1.8290	1.0225	0.0200	0.6415	79.4641
10441750000.0000	11.9177	1.8824	1.0275	0.0170	0.6473	78.2086
10444375000.0000	11.9463	1.8370	1.0270	0.0240	0.6507	79.5152
10447000000.0000	11.9169	1.8683	1.0233	0.0213	0.6440	79.0712
10449625000.0000	11.9226	1.8601	1.0270	0.0227	0.6498	79.1015
10452250000.0000	11.9149	1.8521	1.0260	0.0226	0.6487	79.2290
10454875000.0000	11.9296	1.8524	1.0267	0.0243	0.6512	79.3446
10457500000.0000	11.9143	1.8482	1.0284	0.0232	0.6528	79.1805
10460125000.0000	11.9065	1.8636	1.0231	0.0168	0.6447	78.4689
10462750000.0000	11.9025	1.8162	1.0231	0.0252	0.6472	80.0423
10465375000.0000	11.9102	1.8738	1.0252	0.0232	0.6498	78.9871
10468000000.0000	11.9438	1.8397	1.0276	0.0241	0.6557	79.2570
10470625000.0000	11.9028	1.8695	1.0248	0.0133	0.6476	77.7974
10473250000.0000	11.9155	1.8572	1.0290	0.0203	0.6559	78.5183
10475875000.0000	11.9585	1.8067	1.0432	0.0237	0.6787	78.6351
10478500000.0000	11.9590	1.8117	1.0296	0.0331	0.6634	80.5141
10481125000.0000	11.9330	1.8897	1.0323	0.0146	0.6610	77.1250
10483750000.0000	11.9365	1.8663	1.0346	0.0302	0.6686	79.2225
10486375000.0000	11.9644	1.8375	1.0311	0.0292	0.6662	79.5258
10489000000.0000	11.9426	1.8820	1.0266	0.0144	0.6557	77.3929
10491625000.0000	11.8782	1.8252	1.0252	0.0200	0.6525	78.9589
10494250000.0000	11.8791	1.8256	1.0123	0.0233	0.6376	80.0125
10496875000.0000	11.8772	1.8476	1.0244	0.0118	0.6504	77.6826
10499500000.0000	11.9251	1.8667	1.0285	0.0256	0.6619	78.8172
10502125000.0000	11.9874	1.8431	1.0318	0.0300	0.6717	79.3231
10504750000.0000	11.9262	1.7606	1.0188	0.0355	0.6535	81.8324
10507375000.0000	11.9452	1.7906	1.0189	0.0184	0.6512	79.1485
10510000000.0000	11.9823	1.8124	1.0324	0.0271	0.6734	79.1964
10512625000.0000	11.9596	1.8359	1.0346	0.0177	0.6729	77.6037
10515250000.0000	11.9291	1.8539	1.0402	0.0162	0.6785	76.9369
10517875000.0000	11.9312	1.7913	1.0184	0.0209	0.6523	79.4295
10520500000.0000	11.9347	1.8355	1.0303	0.0136	0.6663	77.3024
10523125000.0000	11.9384	1.7845	1.0297	0.0175	0.6677	78.3967
10525750000.0000	11.9384	1.7942	1.0218	0.0166	0.6577	78.5661
10528375000.0000	11.9235	1.8160	1.0213	0.0160	0.6563	78.2832
10531000000.0000	11.9567	1.8041	1.0253	0.0179	0.6645	78.3302
10533625000.0000	11.9363	1.7963	1.0223	0.0180	0.6599	78.6276
10536250000.0000	11.9208	1.8187	1.0273	0.0101	0.6640	77.0916
10538875000.0000	11.9741	1.7895	1.0247	0.0153	0.6657	78.0593
10541500000.0000	11.9465	1.7748	1.0265	0.0190	0.6680	78.6677
10544125000.0000	11.9496	1.7994	1.0281	0.0099	0.6684	77.0812
10546750000.0000	11.9390	1.8070	1.0139	0.0130	0.6504	78.1774
10549375000.0000	11.9162	1.8115	1.0335	0.0101	0.6745	76.7004
10552000000.0000	11.9420	1.7558	1.0199	0.0308	0.6638	80.7366
10554625000.0000	11.9333	1.7899	1.0303	0.0171	0.6742	77.9391
10557250000.0000	11.9618	1.8104	1.0345	0.0146	0.6813	77.0170
10559875000.0000	11.9208	1.7915	1.0314	0.0200	0.6766	78.2163
10562500000.0000	11.9778	1.7522	1.0317	0.0273	0.6832	79.4866
10565125000.0000	11.9460	1.8730	1.0402	0.0106	0.6880	75.3914
10567750000.0000	11.9236	1.8282	1.0337	0.0190	0.6809	77.4239
10570375000.0000	11.9429	1.7330	1.0366	0.0311	0.6904	79.9982
10573000000.0000	11.8668	1.8124	1.0152	0.0026	0.6504	76.6837
10575625000.0000	11.9311	1.8200	1.0325	0.0179	0.6811	77.3451
10578250000.0000	11.9506	1.8433	1.0424	0.0059	0.6930	74.8459
10580875000.0000	11.9067	1.8488	1.0368	0.0031	0.6823	74.8779
10583500000.0000	11.9832	1.7717	1.0273	0.0294	0.6822	79.5573
10586125000.0000	11.9191	1.8102	1.0276	0.0255	0.6779	78.6776
10588750000.0000	11.9339	1.8394	1.0430	0.0104	0.6962	75.3539
10591375000.0000	11.8878	1.8004	1.0255	0.0194	0.6728	78.1233
10594000000.0000	11.9311	1.8050	1.0315	0.0201	0.6842	77.6716
10596625000.0000	11.8584	1.7806	1.0144	0.0036	0.6539	76.9764
10599250000.0000	11.9294	1.8020	1.0237	0.0221	0.6750	78.3765
10601875000.0000	11.9239	1.8634	1.0358	0.0115	0.6884	75.5272
10604500000.0000	11.9072	1.8611	1.0340	0.0048	0.6836	74.8401
10607125000.0000	11.9297	1.8243	1.0313	0.0153	0.6851	76.6741
10609750000.0000	11.9264	1.8216	1.0321	0.0103	0.6852	75.9950
10612375000.0000	11.9066	1.8247	1.0342	0.0070	0.6865	75.4337
10615000000.0000	11.9293	1.8009	1.0271	0.0114	0.6802	76.5991
10617625000.0000	11.9270	1.8140	1.0330	0.0163	0.6898	76.7315
10620250000.0000	11.8999	1.8179	1.0316	0.0085	0.6845	75.7976
10622875000.0000	11.9159	1.7735	1.0228	0.0175	0.6768	77.9422
10625500000.0000	11.9331	1.8165	1.0254	0.0217	0.6826	77.7573
10628125000.0000	11.8967	1.8235	1.0408	0.0070	0.6982	74.9007
10630750000.0000	11.8856	1.8566	1.0340	0.0142	0.6901	75.8698
10633375000.0000	11.9391	1.7962	1.0472	0.0205	0.7153	76.4525
10636000000.0000	11.9587	1.8505	1.0442	0.0145	0.7106	75.0491
10638625000.0000	11.9524	1.8000	1.0312	0.0153	0.6931	76.5543
10641250000.0000	11.9123	1.8386	1.0311	0.0215	0.6921	77.0237
10643875000.0000	11.9519	1.8222	1.0259	0.0191	0.6876	77.0513
10646500000.0000	11.9901	1.8029	1.0526	0.0260	0.7313	76.4977
10649125000.0000	12.0102	1.8557	1.0469	0.0242	0.7238	75.8060
10651750000.0000	11.9597	1.8484	1.0222	0.0204	0.6845	77.0244
10654375000.0000	11.9944	1.8123	1.0232	0.0311	0.6919	78.7702
10657000000.0000	11.9419	1.8214	1.0268	0.0245	0.6923	77.6439
10659625000.0000	11.9704	1.8659	1.0356	0.0106	0.7028	74.5608
10662250000.0000	12.0243	1.8430	1.0333	0.0424	0.7129	79.2579
10664875000.0000	11.9927	1.8194	1.0308	0.0344	0.7057	78.6078
10667500000.0000	11.9899	1.8487	1.0354	0.0213	0.7088	76.0746
10670125000.0000	11.9738	1.7912	1.0180	0.0281	0.6858	78.8064
10672750000.0000	11.9665	1.8235	1.0278	0.0228	0.6980	77.0741
10675375000.0000	11.9374	1.8621	1.0442	0.0123	0.7169	74.2154
10678000000.0000	11.9188	1.8822	1.0383	0.0133	0.7076	74.5096
10680625000.0000	11.9405	1.8003	1.0252	0.0219	0.6944	77.3894
10683250000.0000	11.9900	1.7740	1.0210	0.0319	0.6950	79.2227
10685875000.0000	11.9414	1.8540	1.0375	0.0151	0.7105	74.9692
10688500000.0000	11.9806	1.8094	1.0307	0.0260	0.7076	77.3100
10691125000.0000	11.9436	1.7981	1.0275	0.0170	0.6987	76.4835
10693750000.0000	11.9341	1.7908	1.0215	0.0192	0.6908	77.2320
10696375000.0000	11.9036	1.7937	1.0299	0.0144	0.6999	76.0974
10699000000.0000	11.9329	1.8424	1.0252	0.0174	0.6960	76.0678
10701625000.0000	11.9718	1.8168	1.0320	0.0259	0.7117	77.0029
10704250000.0000	11.9154	1.8447	1.0344	0.0196	0.7096	75.7720
10706875000.0000	11.8933	1.8004	1.0303	0.0202	0.7035	76.7007
10709500000.0000	11.9515	1.8028	1.0257	0.0200	0.7013	76.7073
10712125000.0000	11.9349	1.8385	1.0265	0.0257	0.7030	77.0392
10714750000.0000	11.9287	1.8693	1.0174	0.0133	0.6864	75.5118
10717375000.0000	11.8992	1.8925	1.0225	0.0143	0.6923	75.1252
10720000000.0000	11.8966	1.8124	1.0352	0.0207	0.7137	76.1504
10722625000.0000	11.8972	1.8723	1.0245	0.0204	0.6980	76.0093
10725250000.0000	11.9453	1.8352	1.0285	0.0183	0.7074	75.7383
10727875000.0000	11.9081	1.8499	1.0259	0.0120	0.6997	74.9577
10730500000.0000	11.9046	1.8476	1.0168	0.0167	0.6885	76.1638
10733125000.0000	11.9132	1.8488	1.0176	0.0189	0.6912	76.3443
10735750000.0000	11.8688	1.8388	1.0346	0.0146	0.7122	74.9281
10738375000.0000	11.9190	1.7964	1.0338	0.0277	0.7194	77.1683
10741000000.0000	11.9292	1.8312	1.0412	0.0115	0.7265	73.9005
10743625000.0000	11.8970	1.8295	1.0334	0.0255	0.7173	76.4493
10746250000.0000	11.9222	1.8427	1.0358	0.0191	0.7213	75.1194
10748875000.0000	11.9128	1.8467	1.0314	0.0128	0.7128	74.4852
10751500000.0000	11.9185	1.8078	1.0210	0.0176	0.7005	76.2397
10754125000.0000	11.8786	1.8967	1.0513	0.0147	0.7410	72.8480
10756750000.0000	11.9262	1.8336	1.0300	0.0221	0.7162	75.8919
10759375000.0000	11.9446	1.8629	1.0323	0.0213	0.7210	75.1624
10762000000.0000	11.9346	1.8906	1.0430	0.0190	0.7358	73.7701
10764625000.0000	12.0213	1.8246	1.0323	0.0381	0.7333	77.8290
10767250000.0000	11.9386	1.7881	1.0225	0.0227	0.7089	76.8764
10769875000.0000	11.9341	1.8457	1.0339	0.0218	0.7252	75.2526
10772500000.0000	11.8615	1.7912	1.0232	0.0183	0.7045	76.3519
10775125000.0000	11.8699	1.8575	1.0306	0.0103	0.7133	73.9019
10777750000.0000	11.9058	1.9465	1.0403	0.0187	0.7323	73.1101
10780375000.0000	11.9526	1.8525	1.0415	0.0228	0.7408	74.6102
10783000000.0000	11.9437	1.8472	1.0391	0.0163	0.7351	73.9240
10785625000.0000	12.0131	1.8271	1.0400	0.0235	0.7449	74.8845
10788250000.0000	11.9537	1.9166	1.0312	0.0193	0.7250	73.8828
10790875000.0000	11.9653	1.9205	1.0444	0.0210	0.7473	73.0751
10793500000.0000	11.9669	1.9243	1.0347	0.0214	0.7330	73.7259
10796125000.0000	11.9029	1.7982	1.0402	0.0246	0.7400	75.6639
10798750000.0000	11.9385	1.9051	1.0390	0.0148	0.7368	72.7918
10801375000.0000	11.9020	1.9118	1.0366	0.0231	0.7337	74.1336
10804000000.0000	11.9771	1.8840	1.0373	0.0225	0.7411	74.0483
10806625000.0000	11.9684	1.8815	1.0300	0.0258	0.7309	75.0603
10809250000.0000	11.9741	1.8602	1.0368	0.0313	0.7445	75.6520
10811875000.0000	11.9939	1.8416	1.0385	0.0318	0.7497	75.7597
10814500000.0000	11.9477	1.8508	1.0337	0.0183	0.7349	74.1064
10817125000.0000	11.9370	1.8542	1.0384	0.0310	0.7460	75.6038
10819750000.0000	11.9859	1.8633	1.0486	0.0440	0.7713	76.5863
10822375000.0000	11.9645	1.8494	1.0369	0.0278	0.7460	75.1414
10825000000.0000	11.9406	1.8617	1.0343	0.0225	0.7389	74.4293
10827625000.0000	11.9553	1.8913	1.0412	0.0233	0.7514	73.5798
10830250000.0000	11.9340	1.8438	1.0393	0.0229	0.7479	74.3260
10832875000.0000	12.0112	1.8168	1.0227	0.0342	0.7321	77.2212
10835500000.0000	11.9734	1.7965	1.0273	0.0291	0.7358	76.5101
10838125000.0000	11.9141	1.8717	1.0409	0.0142	0.7472	72.5814
10840750000.0000	11.9748	1.8472	1.0327	0.0328	0.7462	75.9433
10843375000.0000	11.9637	1.8542	1.0354	0.0258	0.7479	74.6231
10846000000.0000	11.9417	1.8749	1.0364	0.0265	0.7482	74.4270
10848625000.0000	12.0064	1.8627	1.0368	0.0350	0.7578	75.5886
10851250000.0000	11.8437	1.8860	1.0390	0.0136	0.7416	72.5498
10853875000.0000	11.9924	1.8874	1.0374	0.0276	0.7560	74.0608
10856500000.0000	11.9696	1.7683	1.0228	0.0426	0.7376	79.0735
10859125000.0000	11.9456	1.8765	1.0346	0.0184	0.7460	73.1651
10861750000.0000	11.8706	1.8178	1.0206	0.0246	0.7221	76.0152
10864375000.0000	11.9684	1.8363	1.0325	0.0264	0.7489	74.8764
10867000000.0000	11.9243	1.8121	1.0353	0.0419	0.7561	77.5317
10869625000.0000	11.9166	1.8397	1.0318	0.0296	0.7460	75.4729
10872250000.0000	11.9304	1.7859	1.0319	0.0343	0.7501	76.8701
10874875000.0000	11.9846	1.8561	1.0435	0.0287	0.7712	73.9747
10877500000.0000	11.9732	1.8205	1.0354	0.0279	0.7579	74.9336
10880125000.0000	11.9643	1.8573	1.0357	0.0275	0.7577	74.3363
10882750000.0000	11.9795	1.8407	1.0356	0.0212	0.7573	73.5382
10885375000.0000	11.9412	1.8160	1.0422	0.0302	0.7692	74.8971
10888000000.0000	11.9377	1.8448	1.0315	0.0290	0.7513	75.0426
10890625000.0000	11.9375	1.8554	1.0351	0.0243	0.7560	73.8962
10893250000.0000	11.9428	1.8535	1.0236	0.0227	0.7382	74.4389
10895875000.0000	11.9468	1.8344	1.0353	0.0267	0.7594	74.4374
10898500000.0000	11.9275	1.8338	1.0402	0.0267	0.7665	74.1388
10901125000.0000	11.9128	1.8587	1.0367	0.0204	0.7577	73.1153
10903750000.0000	11.9284	1.8699	1.0375	0.0317	0.7648	74.5090
10906375000.0000	11.9387	1.8672	1.0430	0.0313	0.7753	74.0093
10909000000.0000	11.9164	1.8471	1.0352	0.0196	0.7574	73.1502
10911625000.0000	11.9356	1.8703	1.0370	0.0247	0.7639	73.3471
10914250000.0000	11.8879	1.8194	1.0328	0.0147	0.7512	73.0230
10916875000.0000	11.9162	1.8131	1.0337	0.0250	0.7592	74.4346
10919500000.0000	11.9375	1.8437	1.0368	0.0292	0.7676	74.3117
10922125000.0000	11.8819	1.9111	1.0440	0.0193	0.7709	71.5582
10924750000.0000	11.8777	1.8236	1.0402	0.0174	0.7658	72.7313
10927375000.0000	11.9868	1.8743	1.0421	0.0349	0.7845	74.0853
10930000000.0000	11.9129	1.8415	1.0362	0.0199	0.7640	72.9320
10932625000.0000	11.9033	1.8503	1.0367	0.0171	0.7635	72.3681
10935250000.0000	11.8911	1.8293	1.0336	0.0148	0.7576	72.5578
10937875000.0000	11.9521	1.9055	1.0342	0.0221	0.7656	72.2668
10940500000.0000	11.8567	1.8409	1.0389	0.0270	0.7688	73.8880
10943125000.0000	11.9065	1.7490	1.0376	0.0265	0.7727	75.0042
10945750000.0000	11.9273	1.8215	1.0367	0.0342	0.7753	75.1183
10948375000.0000	11.9740	1.8667	1.0452	0.0227	0.7895	71.8178
10951000000.0000	11.9601	1.8188	1.0366	0.0325	0.7786	74.7119
10953625000.0000	11.9002	1.8814	1.0424	0.0332	0.7834	73.6807
10956250000.0000	11.8727	1.8483	1.0400	0.0160	0.7718	71.8015
10958875000.0000	12.0247	1.8224	1.0400	0.0237	0.7887	72.6552
10961500000.0000	11.9843	1.8312	1.0457	0.0272	0.7971	72.7797
10964125000.0000	11.8840	1.8955	1.0327	0.0297	0.7669	73.5793
10966750000.0000	11.9088	1.8768	1.0420	0.0352	0.7876	73.8879
10969375000.0000	11.9763	1.8346	1.0404	0.0334	0.7914	74.0529
10972000000.0000	11.9951	1.8754	1.0412	0.0303	0.7933	72.7798
10974625000.0000	11.9771	1.8547	1.0463	0.0317	0.8022	72.9494
10977250000.0000	11.9957	1.8625	1.0307	0.0227	0.7741	72.5106
10979875000.0000	11.9582	1.8796	1.0429	0.0341	0.7966	73.2406
10982500000.0000	11.9527	1.8749	1.0417	0.0300	0.7932	72.7254
10985125000.0000	11.9194	1.8358	1.0402	0.0252	0.7870	72.7519
10987750000.0000	12.0061	1.8901	1.0371	0.0365	0.7936	73.6127
10990375000.0000	11.9778	1.8129	1.0301	0.0285	0.7777	74.0619
10993000000.0000	11.9717	1.8842	1.0408	0.0335	0.7972	72.9947
10995625000.0000	11.9669	1.8763	1.0396	0.0314	0.7946	72.8579
10998250000.0000	11.9997	1.8262	1.0342	0.0312	0.7895	73.8128
11000875000.0000	12.0106	1.8869	1.0396	0.0379	0.8026	73.5050
11003500000.0000	11.9364	1.8236	1.0311	0.0260	0.7781	73.4188
11006125000.0000	11.9529	1.8211	1.0357	0.0270	0.7885	73.1613
11008750000.0000	12.0525	1.8071	1.0363	0.0409	0.8049	75.2407
11011375000.0000	11.9463	1.8474	1.0380	0.0228	0.7911	71.9137
11014000000.0000	11.9426	1.9296	1.0407	0.0135	0.7909	69.1339
11016625000.0000	11.9990	1.8577	1.0388	0.0357	0.8038	73.4706
11019250000.0000	11.9061	1.8118	1.0312	0.0246	0.7792	73.2830
11021875000.0000	12.0158	1.8405	1.0446	0.0331	0.8165	72.7068
11024500000.0000	11.9646	1.7923	1.0333	0.0280	0.7909	73.6529
11027125000.0000	11.9270	1.8442	1.0329	0.0323	0.7884	73.7110
11029750000.0000	11.9491	1.8618	1.0401	0.0249	0.8006	71.5887
11032375000.0000	11.9461	1.9132	1.0387	0.0280	0.7988	71.4242
11035000000.0000	11.9387	1.8423	1.0330	0.0222	0.7877	71.9862
11037625000.0000	11.9923	1.8373	1.0362	0.0237	0.7996	71.7758
11040250000.0000	11.9354	1.8085	1.0244	0.0274	0.7765	73.8815
11042875000.0000	11.8909	1.8283	1.0273	0.0261	0.7775	73.3165
11045500000.0000	11.9158	1.9164	1.0322	0.0168	0.7836	70.1401
11048125000.0000	11.9052	1.8740	1.0280	0.0198	0.7780	71.5202
11050750000.0000	11.9862	1.8315	1.0284	0.0255	0.7895	72.5979
11053375000.0000	11.9395	1.8168	1.0352	0.0208	0.7963	71.6859
11056000000.0000	11.9434	1.8253	1.0275	0.0248	0.7853	72.7440
11058625000.0000	11.9471	1.8459	1.0232	0.0234	0.7780	72.5090
11061250000.0000	11.9197	1.8238	1.0263	0.0186	0.7800	71.9281
11063875000.0000	11.9352	1.8405	1.0318	0.0300	0.7959	72.9656
11066500000.0000	11.9247	1.8665	1.0332	0.0283	0.7970	72.1891
11069125000.0000	11.9091	1.8623	1.0325	0.0192	0.7915	70.9135
11071750000.0000	11.9398	1.8430	1.0268	0.0235	0.7869	72.1432
11074375000.0000	11.9318	1.8387	1.0329	0.0273	0.7993	72.3267
11077000000.0000	11.9824	1.8577	1.0373	0.0308	0.8138	72.0148
11079625000.0000	11.8850	1.8776	1.0287	0.0208	0.7857	71.2073
11082250000.0000	11.9305	1.8408	1.0343	0.0329	0.8060	72.9940
11084875000.0000	11.9257	1.8986	1.0398	0.0200	0.8098	69.6146
11087500000.0000	11.9129	1.8360	1.0331	0.0274	0.8015	72.2657
11090125000.0000	11.9225	1.8975	1.0400	0.0330	0.8170	71.6155
11092750000.0000	11.9160	1.8103	1.0323	0.0326	0.8042	73.4736
11095375000.0000	11.8671	1.8934	1.0283	0.0202	0.7869	70.7861
11098000000.0000	11.9300	1.8426	1.0340	0.0257	0.8065	71.5960
11100625000.0000	11.9502	1.7892	1.0385	0.0286	0.8197	72.3925
11103250000.0000	11.8684	1.9291	1.0294	0.0214	0.7909	70.2519
11105875000.0000	11.9907	1.8476	1.0380	0.0281	0.8229	71.1984
11108500000.0000	11.8786	1.8283	1.0341	0.0308	0.8071	72.7037
11111125000.0000	11.8807	1.8871	1.0305	0.0232	0.7973	70.8724
11113750000.0000	11.8687	1.8786	1.0305	0.0222	0.7968	70.8527
11116375000.0000	11.9098	1.7893	1.0222	0.0395	0.7947	75.4707
11119000000.0000	11.8801	1.8510	1.0320	0.0213	0.8019	70.8657
11121625000.0000	11.9305	1.8781	1.0421	0.0293	0.8290	70.6354
11124250000.0000	11.9719	1.8557	1.0416	0.0279	0.8327	70.5528
11126875000.0000	11.9250	1.8766	1.0358	0.0268	0.8171	70.7352
11129500000.0000	11.9383	1.8490	1.0429	0.0298	0.8344	70.9420
11132125000.0000	11.9456	1.8653	1.0396	0.0251	0.8270	70.1222
11134750000.0000	11.9384	1.8417	1.0381	0.0292	0.8266	71.2885
11137375000.0000	11.9307	1.8636	1.0406	0.0279	0.8303	70.5158
11140000000.0000	11.9403	1.8669	1.0396	0.0295	0.8308	70.7304
11142625000.0000	11.9531	1.8759	1.0340	0.0280	0.8214	70.7147
11145250000.0000	11.9447	1.8555	1.0390	0.0254	0.8299	70.1864
11147875000.0000	11.9716	1.8811	1.0373	0.0342	0.8336	71.2396
11150500000.0000	11.9507	1.8776	1.0380	0.0265	0.8300	70.0051
11153125000.0000	11.9151	1.8744	1.0345	0.0233	0.8195	69.9635
11155750000.0000	11.9548	1.8795	1.0418	0.0277	0.8398	69.7386
11158375000.0000	11.9797	1.8500	1.0302	0.0339	0.8243	72.0809
11161000000.0000	11.9879	1.8412	1.0326	0.0320	0.8296	71.6267
11163625000.0000	11.9893	1.8815	1.0404	0.0338	0.8458	70.5734
11166250000.0000	11.9238	1.8191	1.0284	0.0362	0.8190	73.2403
11168875000.0000	11.9733	1.8333	1.0453	0.0381	0.8584	71.6692
11171500000.0000	12.0132	1.8820	1.0397	0.0343	0.8494	70.4899
11174125000.0000	11.9588	1.8513	1.0321	0.0391	0.8325	72.6733
11176750000.0000	12.0277	1.9143	1.0399	0.0313	0.8507	69.3049
11179375000.0000	11.9349	1.8706	1.0207	0.0384	0.8095	73.2077
11182000000.0000	11.8784	1.9092	1.0330	0.0159	0.8167	68.1546
11184625000.0000	11.9608	1.7812	1.0316	0.0356	0.8343	73.0618
11187250000.0000	11.8413	1.8878	1.0280	0.0259	0.8105	70.5482
11189875000.0000	11.9262	1.8859	1.0394	0.0264	0.8413	69.2542
11192500000.0000	11.9161	1.8308	1.0285	0.0227	0.8197	70.4252
11195125000.0000	11.9774	1.8809	1.0372	0.0353	0.8481	70.7042
11197750000.0000	11.8725	1.8191	1.0186	0.0259	0.8002	72.0733
11200375000.0000	11.9874	1.9139	1.0425	0.0292	0.8575	68.5354
11203000000.0000	11.8839	1.8761	1.0246	0.0261	0.8128	70.6224
11205625000.0000	11.9111	1.8522	1.0256	0.0253	0.8181	70.5991
11208250000.0000	11.8642	1.7886	1.0185	0.0201	0.8002	71.4740
11210875000.0000	11.9388	1.8104	1.0337	0.0322	0.8418	71.5326
11213500000.0000	11.9273	1.8075	1.0267	0.0284	0.8262	71.5226
11216125000.0000	11.8928	1.8492	1.0279	0.0246	0.8232	70.2738
11218750000.0000	11.9213	1.8222	1.0273	0.0276	0.8275	71.0727
11221375000.0000	11.9043	1.8678	1.0312	0.0235	0.8312	69.3846
11224000000.0000	11.9277	1.8608	1.0290	0.0225	0.8296	69.3666
11226625000.0000	11.9124	1.8262	1.0269	0.0233	0.8260	70.2462
11229250000.0000	11.9136	1.8353	1.0297	0.0239	0.8323	69.9248
11231875000.0000	11.8860	1.8417	1.0297	0.0203	0.8285	69.3120
11234500000.0000	11.8882	1.8498	1.0236	0.0240	0.8194	70.2822
11237125000.0000	11.8663	1.8420	1.0268	0.0229	0.8236	70.0009
11239750000.0000	11.9566	1.8128	1.0301	0.0224	0.8402	69.6095
11242375000.0000	11.9052	1.8269	1.0306	0.0274	0.8386	70.3945
11245000000.0000	11.9420	1.8611	1.0310	0.0248	0.8421	69.1796
11247625000.0000	11.9149	1.8406	1.0360	0.0269	0.8514	69.4920
11250250000.0000	11.9205	1.8379	1.0287	0.0271	0.8385	70.1427
11252875000.0000	11.9383	1.8523	1.0360	0.0191	0.8511	67.8003
11255500000.0000	11.9119	1.8801	1.0345	0.0192	0.8456	67.6432
11258125000.0000	11.9712	1.8152	1.0253	0.0380	0.8449	72.3781
11260750000.0000	11.9008	1.8186	1.0260	0.0223	0.8323	69.8121
11263375000.0000	11.9501	1.8541	1.0369	0.0209	0.8581	67.7567
11266000000.0000	11.9634	1.9051	1.0368	0.0302	0.8639	68.4374
11268625000.0000	11.9334	1.8333	1.0367	0.0286	0.8618	69.4212
11271250000.0000	11.9408	1.8561	1.0406	0.0232	0.8682	67.6859
11273875000.0000	11.9184	1.8838	1.0399	0.0277	0.8667	68.1523
11276500000.0000	11.9035	1.8576	1.0261	0.0159	0.8332	67.9098
11279125000.0000	11.9286	1.8713	1.0321	0.0238	0.8520	68.2833
11281750000.0000	11.9424	1.8097	1.0294	0.0346	0.8555	71.2702
11284375000.0000	11.9178	1.8839	1.0310	0.0167	0.8463	66.9949
11287000000.0000	11.9489	1.8944	1.0321	0.0294	0.8588	68.6285
11289625000.0000	11.9489	1.8886	1.0343	0.0228	0.8608	67.3676
11292250000.0000	11.9252	1.8598	1.0352	0.0275	0.8638	68.6129
11294875000.0000	11.9139	1.8802	1.0327	0.0200	0.8541	67.2822
11297500000.0000	11.9474	1.8951	1.0394	0.0260	0.8750	67.1969
11300125000.0000	11.9106	1.8862	1.0330	0.0217	0.8567	67.3663
11302750000.0000	11.9492	1.8651	1.0341	0.0296	0.8684	68.7087
11305375000.0000	11.9457	1.8758	1.0338	0.0257	0.8660	67.8596
11308000000.0000	11.9278	1.8773	1.0352	0.0234	0.8664	67.3567
11310625000.0000	11.9092	1.8878	1.0328	0.0270	0.8619	68.0817
11313250000.0000	11.9542	1.8789	1.0316	0.0270	0.8653	68.0733
11315875000.0000	11.9508	1.8793	1.0333	0.0302	0.8710	68.4364
11318500000.0000	11.9806	1.9181	1.0446	0.0235	0.8941	65.3596
11321125000.0000	11.9192	1.9047	1.0288	0.0282	0.8582	68.1804
11323750000.0000	11.9543	1.8157	1.0123	0.0260	0.8304	70.4868
11326375000.0000	11.9668	1.9016	1.0340	0.0281	0.8757	67.3873
11329000000.0000	11.9709	1.9032	1.0353	0.0194	0.8747	65.6964
11331625000.0000	11.9409	1.8499	1.0237	0.0367	0.8587	70.7661
11334250000.0000	11.9985	1.8461	1.0251	0.0311	0.8659	69.3634
11336875000.0000	11.9150	1.9374	1.0389	0.0243	0.8804	65.8013
11339500000.0000	11.9470	1.9443	1.0350	0.0204	0.8741	65.2003
11342125000.0000	11.8887	1.9271	1.0365	0.0256	0.8749	66.4811
11344750000.0000	11.9041	1.8348	1.0230	0.0233	0.8509	68.6711
11347375000.0000	12.0015	1.8116	1.0340	0.0440	0.8971	71.3215
11350000000.0000	11.9856	1.8853	1.0452	0.0322	0.9123	66.7677
11352625000.0000	11.9605	1.8362	1.0229	0.0344	0.8647	70.2327
11355250000.0000	11.9785	1.8678	1.0441	0.0392	0.9153	68.4184
11357875000.0000	12.0213	1.8792	1.0307	0.0426	0.8936	69.9171
11360500000.0000	11.9850	1.8860	1.0398	0.0341	0.9050	67.4636
11363125000.0000	11.9459	1.9078	1.0345	0.0221	0.8822	65.7084
11365750000.0000	11.9473	1.9030	1.0325	0.0249	0.8807	66.3894
11368375000.0000	11.9257	1.8887	1.0314	0.0182	0.8733	65.6775
11371000000.0000	11.9605	1.8257	1.0224	0.0302	0.8672	69.4020
11373625000.0000	11.8816	1.8804	1.0243	0.0127	0.8527	65.7442
11376250000.0000	11.9089	1.9051	1.0351	0.0210	0.8828	65.4855
11378875000.0000	11.9655	1.8992	1.0308	0.0211	0.8811	65.6421
11381500000.0000	11.9046	1.9227	1.0255	0.0183	0.8619	65.6429
11384125000.0000	11.9877	1.8621	1.0247	0.0272	0.8768	67.6885
11386750000.0000	11.9362	1.9269	1.0306	0.0223	0.8796	65.4688
11389375000.0000	11.9380	1.9124	1.0292	0.0229	0.8785	65.8777
11392000000.0000	11.9578	1.8810	1.0333	0.0258	0.8930	66.3129
11394625000.0000	11.8738	1.8580	1.0385	0.0174	0.8908	65.1663
11397250000.0000	11.9059	1.9174	1.0259	0.0181	0.8676	65.3762
11399875000.0000	11.9274	1.9242	1.0381	0.0229	0.8992	64.6838
11402500000.0000	11.8949	1.9042	1.0202	0.0183	0.8566	66.1354
11405125000.0000	11.9265	1.9219	1.0299	0.0186	0.8806	64.7375
11407750000.0000	11.9208	1.8900	1.0291	0.0190	0.8803	65.3637
11410375000.0000	11.9737	1.8984	1.0355	0.0137	0.8977	63.3264
11413000000.0000	11.8741	1.8766	1.0196	0.0186	0.8572	66.6046
11415625000.0000	11.9121	1.8725	1.0237	0.0248	0.8740	67.0798
11418250000.0000	11.8763	1.8325	1.0315	0.0202	0.8858	66.3260
11420875000.0000	11.8750	1.9074	1.0359	0.0154	0.8908	63.8686
11423500000.0000	11.9081	1.9139	1.0402	0.0131	0.9032	62.6937
11426125000.0000	11.9293	1.9212	1.0422	0.0298	0.9216	65.0076
11428750000.0000	11.9304	1.9261	1.0354	0.0184	0.9001	63.6347
11431375000.0000	11.9478	1.8757	1.0342	0.0228	0.9047	65.1519
11434000000.0000	11.9055	1.8805	1.0198	0.0262	0.8713	67.3085
11436625000.0000	11.9195	1.9210	1.0325	0.0245	0.8988	64.9620
11439250000.0000	11.8660	1.9140	1.0316	0.0182	0.8879	64.3808
11441875000.0000	11.8846	1.9589	1.0350	0.0061	0.8890	61.2773
11444500000.0000	11.8928	1.9605	1.0415	0.0106	0.9076	61.1568
11447125000.0000	11.8865	1.9196	1.0379	0.0124	0.9026	62.4317
11449750000.0000	11.9041	1.9457	1.0382	0.0178	0.9086	62.7194
11452375000.0000	11.8966	1.9281	1.0296	0.0150	0.8887	63.4157
11455000000.0000	11.9214	1.8956	1.0310	0.0166	0.8975	63.8396
11457625000.0000	11.9162	1.9163	1.0316	0.0194	0.9001	63.9069
11460250000.0000	11.9232	1.9251	1.0331	0.0189	0.9045	63.4375
11462875000.0000	11.9052	1.9384	1.0377	0.0223	0.9152	63.3714
11465500000.0000	11.8930	1.8821	1.0300	0.0150	0.8949	63.8756
11468125000.0000	11.9142	1.9614	1.0396	0.0168	0.9179	61.7437
11470750000.0000	11.8952	1.9178	1.0410	0.0208	0.9235	63.0298
11473375000.0000	11.9409	1.9469	1.0312	0.0215	0.9077	63.3779
11476000000.0000	11.9092	1.9561	1.0315	0.0250	0.9074	63.9534
11478625000.0000	11.9174	1.9495	1.0359	0.0155	0.9128	61.8953
11481250000.0000	11.9567	1.9210	1.0325	0.0259	0.9187	64.1847
11483875000.0000	11.9016	1.9106	1.0275	0.0258	0.9019	65.1398
11486500000.0000	11.9546	1.9288	1.0414	0.0248	0.9400	62.8158
11489125000.0000	11.9464	1.9995	1.0288	0.0069	0.8966	60.1616
11491750000.0000	11.8929	1.9477	1.0433	0.0191	0.9333	61.6229
11494375000.0000	11.9360	1.9677	1.0424	0.0170	0.9355	60.7185
11497000000.0000	11.9207	1.9490	1.0482	0.0144	0.9467	59.9933
11499625000.0000	11.9026	1.9455	1.0441	0.0182	0.9386	61.2008
11502250000.0000	11.9088	1.9325	1.0245	0.0228	0.8995	64.2105
11504875000.0000	11.9194	1.8939	1.0324	0.0132	0.9143	62.2434
11507500000.0000	11.9112	1.9379	1.0449	0.0225	0.9477	61.7637
11510125000.0000	11.9218	1.8960	1.0266	0.0253	0.9111	64.7918
11512750000.0000	11.9631	1.9415	1.0459	0.0170	0.9546	60.2050
11515375000.0000	11.9313	1.9012	1.0240	0.0201	0.9046	63.9246
11518000000.0000	11.9335	1.9071	1.0284	0.0208	0.9158	63.4240
11520625000.0000	11.9378	1.8932	1.0257	0.0165	0.9087	63.1180
11523250000.0000	11.9591	1.9205	1.0346	0.0235	0.9366	62.7298
11525875000.0000	11.9238	1.9325	1.0279	0.0178	0.9133	62.4725
11528500000.0000	11.9353	1.9736	1.0444	0.0175	0.9520	59.8103
11531125000.0000	11.9069	1.9485	1.0368	0.0167	0.9317	61.0713
11533750000.0000	11.8774	1.9309	1.0321	0.0108	0.9147	61.0507
11536375000.0000	11.9508	1.9318	1.0378	0.0233	0.9471	61.9637
11539000000.0000	11.9355	1.9177	1.0341	0.0158	0.9324	61.3573
11541625000.0000	11.8756	1.9391	1.0359	0.0114	0.9258	60.4560
11544250000.0000	11.9353	1.9526	1.0337	0.0132	0.9299	60.3207
11546875000.0000	11.8869	1.9626	1.0423	0.0149	0.9453	59.7796
11549500000.0000	11.8861	1.9478	1.0420	0.0104	0.9426	59.2596
11552125000.0000	11.8774	1.9715	1.0302	0.0098	0.9143	60.1204
11554750000.0000	11.8975	1.8864	1.0425	0.0168	0.9544	61.0549
11557375000.0000	11.8721	1.9903	1.0332	0.0029	0.9163	58.3814
11560000000.0000	11.8829	1.9131	1.0360	0.0132	0.9353	60.7410
11562625000.0000	11.9254	2.0279	1.0412	0.0144	0.9503	58.2175
11565250000.0000	11.9357	2.0256	1.0336	0.0104	0.9319	58.3651
11567875000.0000	11.8933	1.9711	1.0301	0.0143	0.9242	60.4605
11570500000.0000	11.9292	1.9503	1.0363	0.0095	0.9415	58.9820
11573125000.0000	11.9528	1.9767	1.0376	0.0065	0.9451	57.7260
11575750000.0000	11.9250	1.9346	1.0483	0.0113	0.9734	58.0677
11578375000.0000	11.8933	1.9521	1.0325	0.0088	0.9301	59.3729
11581000000.0000	11.9556	1.9471	1.0392	0.0072	0.9536	57.9280
11583625000.0000	11.9208	1.9981	1.0378	0.0038	0.9419	56.9881
11586250000.0000	11.9127	2.0298	1.0367	0.0067	0.9400	57.1138
11588875000.0000	11.9163	1.9535	1.0442	0.0113	0.9659	58.0392
11591500000.0000	11.9551	2.0452	1.0342	0.0113	0.9443	57.4625
11594125000.0000	11.9690	1.9627	1.0346	0.0122	0.9524	58.6712
11596750000.0000	11.8816	1.9743	1.0411	0.0058	0.9514	57.3062
11599375000.0000	11.9220	1.9840	1.0426	0.0116	0.9656	57.5392
11602000000.0000	11.9456	1.9542	1.0288	0.0130	0.9390	59.6076
11604625000.0000	11.9393	1.9907	1.0387	0.0120	0.9604	57.7224
11607250000.0000	11.9434	2.0571	1.0439	0.0159	0.9747	56.6323
11609875000.0000	11.9777	1.9865	1.0334	0.0172	0.9591	58.8869
11612500000.0000	11.9199	2.0398	1.0422	0.0135	0.9678	56.7763
11615125000.0000	11.9355	1.9733	1.0331	0.0131	0.9519	58.6373
11617750000.0000	11.8656	1.9491	1.0346	0.0015	0.9389	57.4515
11620375000.0000	11.9156	1.9845	1.0330	0.0099	0.9477	57.9886
11623000000.0000	11.9494	2.0044	1.0402	0.0213	0.9790	58.4280
11625625000.0000	12.0370	2.0017	1.0413	0.0160	0.9911	56.7083
11628250000.0000	11.9342	2.0497	1.0445	0.0129	0.9802	55.8113
11630875000.0000	11.9321	1.9856	1.0358	0.0146	0.9641	58.0856
11633500000.0000	11.9345	1.9702	1.0418	0.0218	0.9865	58.7681
11636125000.0000	11.9498	2.0008	1.0385	0.0089	0.9695	56.3574
11638750000.0000	11.9762	2.0544	1.0364	0.0194	0.9753	57.2172
11641375000.0000	12.0116	1.9794	1.0476	0.0138	1.0084	55.7760
11644000000.0000	11.9607	1.9876	1.0430	0.0165	0.9923	57.0083
11646625000.0000	11.9072	2.0409	1.0285	0.0183	0.9489	58.5441
11649250000.0000	11.9765	2.0929	1.0474	0.0190	1.0046	54.9560
11651875000.0000	11.9700	1.9795	1.0417	0.0114	0.9891	56.2018
11654500000.0000	11.9303	2.0072	1.0317	0.0162	0.9623	58.0232
11657125000.0000	11.9608	2.0596	1.0338	0.0098	0.9648	55.6419
11659750000.0000	11.8938	2.0186	1.0380	0.0074	0.9667	55.8409
11662375000.0000	11.9816	2.0329	1.0368	0.0150	0.9827	56.2439
11665000000.0000	11.9159	2.0397	1.0398	0.0123	0.9792	55.7857
11667625000.0000	11.8969	2.0327	1.0430	0.0044	0.9786	54.3916
11670250000.0000	11.9270	2.0039	1.0323	0.0069	0.9612	56.1995
11672875000.0000	11.9955	2.0297	1.0353	0.0197	0.9891	56.9384
11675500000.0000	11.9234	1.9936	1.0389	0.0004	0.9736	54.4693
11678125000.0000	11.9846	2.0471	1.0412	0.0204	1.0046	55.9925
11680750000.0000	11.9852	2.0687	1.0426	0.0175	1.0054	54.9297
11683375000.0000	11.9033	2.0545	1.0383	0.0040	0.9721	54.1911
11686000000.0000	11.9582	2.0434	1.0393	0.0105	0.9897	54.7245
11688625000.0000	11.9734	2.1353	1.0494	0.0138	1.0169	52.3758
11691250000.0000	11.9368	1.9766	1.0313	0.0086	0.9703	56.4856
11693875000.0000	11.9253	2.0570	1.0407	0.0047	0.9853	53.5504
11696500000.0000	11.9551	2.0908	1.0391	0.0064	0.9864	53.2100
11699125000.0000	11.9333	2.0217	1.0354	0.0105	0.9823	55.4467
11701750000.0000	11.8850	1.9901	1.0327	0.0072	0.9683	56.0776
11704375000.0000	11.9283	1.9921	1.0355	0.0085	0.9834	55.4966
11707000000.0000	11.8881	1.9649	1.0348	0.0069	0.9768	56.0048
11709625000.0000	11.9209	2.0317	1.0311	0.0033	0.9668	54.5809
11712250000.0000	11.9875	1.9988	1.0352	0.0129	0.9980	55.5116
11714875000.0000	11.9071	2.0741	1.0377	0.0049	0.9821	53.3903
11717500000.0000	11.9043	1.9896	1.0365	0.0102	0.9889	55.5903
11720125000.0000	11.9097	2.0727	1.0355	0.0120	0.9854	54.6277
11722750000.0000	12.0091	2.0143	1.0387	0.0123	1.0129	54.3029
11725375000.0000	11.9226	1.9555	1.0379	0.0163	1.0053	56.6763
11728000000.0000	11.9463	2.0798	1.0383	0.0037	0.9925	52.4423
11730625000.0000	11.9572	2.0621	1.0314	0.0069	0.9817	53.8951
11733250000.0000	11.8693	2.1142	1.0341	0.0000	0.9676	52.4829
11735875000.0000	11.8939	2.0701	1.0456	0.0023	1.0052	51.7168
11738500000.0000	11.9513	2.0960	1.0364	0.0023	0.9900	51.9618
11741125000.0000	11.9015	2.0944	1.0407	-0.0022	0.9901	51.1693
11743750000.0000	11.8882	2.1172	1.0353	-0.0065	0.9705	50.9904
11746375000.0000	11.9039	2.1038	1.0372	0.0086	0.9934	52.9123
11749000000.0000	11.9545	2.1057	1.0455	0.0090	1.0237	51.3873
11751625000.0000	11.8763	2.0924	1.0398	0.0020	0.9920	51.8834
11754250000.0000	11.8864	2.0865	1.0422	0.0092	1.0081	52.5831
11756875000.0000	11.8549	2.1133	1.0401	-0.0043	0.9843	50.7460
11759500000.0000	11.9115	2.1589	1.0445	0.0066	1.0128	50.5064
11762125000.0000	11.9129	2.1177	1.0393	0.0079	1.0044	51.9059
11764750000.0000	11.9411	2.1250	1.0427	0.0127	1.0231	51.7728
11767375000.0000	11.8654	2.0746	1.0403	0.0019	0.9984	51.7918
11770000000.0000	11.8410	2.1132	1.0411	0.0039	0.9976	51.5851
11772625000.0000	11.8936	2.0889	1.0391	0.0115	1.0101	52.8197
11775250000.0000	11.9402	2.1889	1.0482	0.0124	1.0371	49.8165
11777875000.0000	11.9446	2.1386	1.0406	0.0095	1.0188	51.0421
11780500000.0000	11.8941	2.1290	1.0386	0.0066	1.0046	51.3810
11783125000.0000	11.8958	2.1193	1.0403	0.0064	1.0107	51.1948
11785750000.0000	11.9371	2.0865	1.0465	0.0080	1.0380	50.6742
11788375000.0000	11.9071	2.0748	1.0406	0.0079	1.0192	51.8190
11791000000.0000	11.9798	2.1374	1.0502	0.0063	1.0515	48.6812
11793625000.0000	11.8927	2.0691	1.0295	-0.0002	0.9829	52.1241
11796250000.0000	11.8944	2.1586	1.0440	0.0069	1.0227	49.9361
11798875000.0000	11.9549	2.1085	1.0301	0.0168	1.0100	53.4297
11801500000.0000	11.9225	2.0806	1.0435	0.0080	1.0340	50.9335
11804125000.0000	11.9225	2.0529	1.0413	0.0109	1.0341	52.0294
11806750000.0000	11.9498	2.1389	1.0436	0.0128	1.0423	50.4169
11809375000.0000	11.9109	2.1061	1.0443	0.0115	1.0395	50.9081
11812000000.0000	11.9011	2.1571	1.0429	0.0063	1.0264	49.5844
11814625000.0000	11.9052	2.1096	1.0354	0.0092	1.0145	51.5865
11817250000.0000	11.8993	2.1105	1.0437	0.0098	1.0372	50.5674
11819875000.0000	11.9192	2.1093	1.0422	0.0052	1.0323	49.8644
11822500000.0000	11.8634	2.0660	1.0432	0.0004	1.0249	50.0994
11825125000.0000	11.8987	2.1006	1.0340	0.0068	1.0117	51.3723
11827750000.0000	11.9093	2.1234	1.0338	0.0056	1.0110	50.7366
11830375000.0000	11.9428	2.1067	1.0368	0.0072	1.0281	50.4540
11833000000.0000	11.9398	2.0682	1.0204	-0.0003	0.9805	52.0131
11835625000.0000	11.9151	2.0841	1.0393	0.0095	1.0364	50.9343
11838250000.0000	11.9256	2.1473	1.0433	0.0093	1.0454	49.2672
11840875000.0000	11.8422	2.0828	1.0361	0.0003	1.0089	50.5389
11843500000.0000	11.9251	2.1815	1.0439	0.0068	1.0437	48.2195
11846125000.0000	11.9275	2.1534	1.0410	0.0096	1.0426	49.3395
11848750000.0000	11.8968	2.1751	1.0449	0.0080	1.0457	48.4832
11851375000.0000	11.9622	2.1012	1.0375	0.0119	1.0467	50.5019
11854000000.0000	11.9347	2.1456	1.0371	0.0120	1.0395	50.0964
11856625000.0000	11.8323	2.1286	1.0366	-0.0079	1.0027	48.4571
11859250000.0000	11.9204	2.1265	1.0385	0.0036	1.0348	48.9422
11861875000.0000	11.8341	2.1608	1.0332	-0.0004	1.0022	49.3306
11864500000.0000	11.9073	2.0962	1.0307	0.0024	1.0148	50.2369
11867125000.0000	11.9538	2.1362	1.0337	0.0032	1.0291	48.8982
11869750000.0000	11.9015	2.0644	1.0415	0.0095	1.0547	50.2787
11872375000.0000	11.8159	2.1593	1.0266	0.0000	0.9870	50.1940
11875000000.0000	11.9102	2.2016	1.0412	-0.0030	1.0334	46.3824
11877625000.0000	11.8322	2.1425	1.0324	0.0017	1.0089	49.6362
11880250000.0000	11.8380	2.1501	1.0340	-0.0037	1.0083	48.4714
11882875000.0000	11.8329	2.1565	1.0338	-0.0004	1.0112	48.8451
11885500000.0000	11.8236	2.1988	1.0389	0.0002	1.0216	47.7119
11888125000.0000	11.8995	2.1310	1.0383	0.0111	1.0501	49.5242
11890750000.0000	11.9005	2.1792	1.0445	0.0007	1.0528	46.4257
11893375000.0000	11.9135	2.1564	1.0409	0.0062	1.0543	47.8254
11896000000.0000	11.8345	2.1543	1.0335	0.0123	1.0295	50.4191
11898625000.0000	11.8620	2.1839	1.0424	0.0022	1.0451	47.0390
11901250000.0000	11.8302	2.1515	1.0320	-0.0010	1.0125	48.6792
11903875000.0000	11.8372	2.1729	1.0412	-0.0019	1.0361	46.9131
11906500000.0000	11.8435	2.1352	1.0388	0.0041	1.0414	48.4439
11909125000.0000	11.8402	2.1448	1.0399	0.0048	1.0450	48.2248
11911750000.0000	11.8470	2.1383	1.0382	0.0036	1.0414	48.2562
11914375000.0000	11.8420	2.1652	1.0424	0.0055	1.0534	47.5660
11917000000.0000	11.8354	2.1732	1.0378	0.0049	1.0395	47.9922
11919625000.0000	11.8599	2.2233	1.0433	0.0098	1.0617	46.9310
11922250000.0000	11.8511	2.2055	1.0445	0.0072	1.0628	46.6652
11924875000.0000	11.8585	2.1626	1.0415	0.0098	1.0631	47.9252
11927500000.0000	11.8420	2.1470	1.0423	0.0090	1.0638	48.0306
11930125000.0000	11.8338	2.1949	1.0451	0.0053	1.0631	46.4420
11932750000.0000	11.8680	2.1567	1.0358	0.0093	1.0518	48.4607
11935375000.0000	11.7995	2.1909	1.0370	0.0016	1.0336	47.3101
11938000000.0000	11.7843	2.1859	1.0415	0.0023	1.0452	46.9364
11940625000.0000	11.8118	2.2037	1.0447	0.0017	1.0574	45.8529
11943250000.0000	11.8335	2.1381	1.0431	0.0096	1.0723	47.8246
11945875000.0000	11.8492	2.1499	1.0463	0.0111	1.0862	47.2074
11948500000.0000	11.8283	2.1802	1.0401	0.0005	1.0508	46.3112
11951125000.0000	11.8022	2.2115	1.0432	-0.0008	1.0521	45.4668
11953750000.0000	11.7041	2.1819	1.0390	-0.0006	1.0286	47.3273
11956375000.0000	11.7913	2.1487	1.0419	0.0006	1.0553	46.6566
11959000000.0000	11.8315	2.1948	1.0433	-0.0028	1.0589	44.9449
11961625000.0000	11.7481	2.1726	1.0387	0.0045	1.0444	47.5802
11964250000.0000	11.8120	2.2091	1.0361	-0.0034	1.0366	45.7394
11966875000.0000	11.7568	2.1872	1.0438	-0.0057	1.0481	45.1539
11969500000.0000	11.7580	2.1741	1.0417	-0.0034	1.0475	45.8170
11972125000.0000	11.8831	2.1138	1.0351	0.0003	1.0603	46.7819
11974750000.0000	11.8062	2.1971	1.0424	-0.0061	1.0540	44.4864
11977375000.0000	11.8217	2.1297	1.0423	0.0006	1.0711	46.0635
11980000000.0000	11.8210	2.1817	1.0377	-0.0037	1.0501	45.3725
11982625000.0000	11.8586	2.1470	1.0420	-0.0015	1.0746	45.0952
11985250000.0000	11.7709	2.1632	1.0423	0.0051	1.0686	46.5312
11987875000.0000	11.7800	2.1510	1.0432	0.0041	1.0734	46.2887
11990500000.0000	11.8001	2.1353	1.0421	0.0015	1.0728	46.0321
11993125000.0000	11.8159	2.1628	1.0398	0.0026	1.0693	45.9174
11995750000.0000	11.7924	2.1419	1.0411	-0.0034	1.0642	45.3742
11998375000.0000	11.7735	2.1845	1.0453	-0.0011	1.0731	44.6457
12001000000.0000	11.8483	2.1643	1.0426	0.0057	1.0899	45.4079
12003625000.0000	11.7991	2.1970	1.0480	0.0014	1.0894	44.0388
12006250000.0000	11.7833	2.1942	1.0451	-0.0004	1.0773	44.3488
12008875000.0000	11.7803	2.1534	1.0417	-0.0020	1.0698	45.1119
12011500000.0000	11.7645	2.2165	1.0448	-0.0053	1.0669	43.5424
12014125000.0000	11.8019	2.1991	1.0457	0.0014	1.0874	44.0418
12016750000.0000	11.7705	2.1423	1.0390	-0.0019	1.0648	45.5612
12019375000.0000	11.7569	2.2021	1.0475	-0.0031	1.0804	43.5012
12022000000.0000	11.7125	2.1652	1.0394	-0.0019	1.0561	45.6465
12024625000.0000	11.7596	2.2353	1.0495	-0.0106	1.0753	41.7701
12027250000.0000	11.8652	2.1359	1.0484	0.0089	1.1284	44.6189
12029875000.0000	11.7966	2.2179	1.0465	-0.0048	1.0848	42.5698
12032500000.0000	11.8080	2.2835	1.0655	0.0005	1.1438	39.4734
12035125000.0000	11.8258	2.1679	1.0523	0.0142	1.1410	44.5292
12037750000.0000	11.7197	2.2153	1.0455	-0.0017	1.0764	43.7164
12040375000.0000	11.7458	2.1184	1.0389	0.0073	1.0832	46.8629
12043000000.0000	11.8515	2.1902	1.0535	0.0048	1.1369	42.2539
12045625000.0000	11.7599	2.2324	1.0466	0.0093	1.1032	44.1410
12048250000.0000	11.7677	2.2038	1.0492	0.0006	1.1034	42.8911
12050875000.0000	11.7474	2.1811	1.0432	0.0049	1.0915	44.7571
12053500000.0000	11.7544	2.1521	1.0516	0.0049	1.1210	43.8199
12056125000.0000	11.8078	2.2155	1.0568	0.0054	1.1427	41.6253
12058750000.0000	11.7034	2.1666	1.0392	0.0022	1.0736	45.4073
12061375000.0000	11.7546	2.1926	1.0516	-0.0002	1.1134	42.4050
12064000000.0000	11.7369	2.2110	1.0518	0.0017	1.1129	42.4734
12066625000.0000	11.7277	2.1973	1.0448	-0.0021	1.0882	43.2055
12069250000.0000	11.7430	2.1781	1.0490	0.0033	1.1134	43.3469
12071875000.0000	11.7418	2.1824	1.0508	-0.0009	1.1132	42.4248
12074500000.0000	11.7564	2.1757	1.0484	0.0031	1.1162	43.1643
12077125000.0000	11.7375	2.1680	1.0509	0.0034	1.1221	43.0798
12079750000.0000	11.7462	2.1532	1.0509	0.0071	1.1318	43.6243
12082375000.0000	11.7426	2.1389	1.0499	0.0028	1.1242	43.3701
12085000000.0000	11.7469	2.1704	1.0488	0.0020	1.1190	42.8762
12087625000.0000	11.7279	2.2234	1.0537	-0.0013	1.1208	41.1717
12090250000.0000	11.7766	2.1854	1.0507	0.0045	1.1347	42.2774
12092875000.0000	11.6721	2.1518	1.0463	-0.0046	1.0938	43.1966
12095500000.0000	11.7937	2.2106	1.0531	-0.0019	1.1352	40.4541
12098125000.0000	11.7243	2.1703	1.0432	0.0009	1.1024	43.4412
12100750000.0000	11.7248	2.1348	1.0458	0.0027	1.1168	43.7216
12103375000.0000	11.7835	2.1732	1.0565	-0.0035	1.1480	40.1567
12106000000.0000	11.7265	2.2024	1.0539	0.0040	1.1391	41.6237
12108625000.0000	11.7598	2.2093	1.0554	0.0005	1.1450	40.4662
12111250000.0000	11.7054	2.2386	1.0480	-0.0010	1.1090	41.4717
12113875000.0000	11.7172	2.1844	1.0482	-0.0032	1.1149	41.6902
12116500000.0000	11.7217	2.1779	1.0378	-0.0018	1.0893	43.3412
12119125000.0000	11.6819	2.1127	1.0357	0.0053	1.0924	45.8511
12121750000.0000	11.8152	2.1684	1.0569	0.0094	1.1855	41.0170
12124375000.0000	11.6732	2.0944	1.0417	0.0137	1.1236	46.4546
12127000000.0000	11.7969	2.1530	1.0460	0.0119	1.1549	43.3089
12129625000.0000	11.7133	2.1706	1.0471	0.0070	1.1338	43.0183
12132250000.0000	11.8021	2.2535	1.0618	0.0036	1.1837	38.2381
12134875000.0000	11.7547	2.1091	1.0427	0.0122	1.1440	44.7645
12137500000.0000	11.7177	2.1497	1.0402	-0.0001	1.1090	43.1217
12140125000.0000	11.7180	2.1677	1.0462	0.0025	1.1301	42.2676
12142750000.0000	11.6928	2.1764	1.0434	-0.0042	1.1076	41.9062
12145375000.0000	11.7563	2.1589	1.0484	0.0123	1.1626	42.8659
12148000000.0000	11.7245	2.1701	1.0441	0.0054	1.1323	42.6642
12150625000.0000	11.7132	2.1569	1.0497	0.0073	1.1529	42.3307
12153250000.0000	11.7139	2.1466	1.0462	0.0035	1.1383	42.4059
12155875000.0000	11.6990	2.1948	1.0510	0.0058	1.1502	41.4136
12158500000.0000	11.7104	2.1469	1.0428	0.0061	1.1334	43.1660
12161125000.0000	11.6648	2.1664	1.0473	0.0066	1.1383	42.7036
12163750000.0000	11.7463	2.1847	1.0498	0.0105	1.1677	41.6617
12166375000.0000	11.7354	2.1966	1.0482	0.0079	1.1563	41.4386
12169000000.0000	11.7031	2.1804	1.0493	0.0093	1.1583	41.9586
12171625000.0000	11.6980	2.0960	1.0519	0.0074	1.1723	42.5265
12174250000.0000	11.7448	2.1518	1.0489	0.0160	1.1818	42.8071
12176875000.0000	11.7256	2.2033	1.0615	0.0087	1.2021	39.2640
12179500000.0000	11.6892	2.1654	1.0503	0.0035	1.1557	41.1301
12182125000.0000	11.7197	2.2018	1.0543	0.0035	1.1714	39.6417
12184750000.0000	11.6714	2.1707	1.0604	0.0076	1.1926	40.1316
12187375000.0000	11.7012	2.1357	1.0544	0.0174	1.2006	42.5558
12190000000.0000	11.7022	2.2078	1.0649	0.0156	1.2263	39.4946
12192625000.0000	11.7175	2.1547	1.0546	0.0047	1.1839	40.1444
12195250000.0000	11.6763	2.1900	1.0515	0.0036	1.1615	40.3584
12197875000.0000	11.6558	2.2081	1.0631	0.0032	1.1922	38.4897
12200500000.0000	11.6327	2.2055	1.0601	0.0023	1.1777	39.0657
12203125000.0000	11.6728	2.2001	1.0546	0.0180	1.1970	41.5066
12205750000.0000	11.6966	2.1860	1.0617	0.0117	1.2175	39.4294
12208375000.0000	11.6953	2.1607	1.0525	0.0136	1.1943	41.4235
12211000000.0000	11.7744	2.1462	1.0448	0.0242	1.2063	43.5399
12213625000.0000	11.6736	2.1995	1.0511	0.0045	1.1682	39.9673
12216250000.0000	11.6954	2.1443	1.0494	0.0146	1.1912	42.0913
12218875000.0000	11.6061	2.1988	1.0575	-0.0008	1.1681	38.9759
12221500000.0000	11.6679	2.1968	1.0587	0.0108	1.2060	39.5248
12224125000.0000	11.6685	2.1338	1.0479	0.0094	1.1767	41.8214
12226750000.0000	11.6398	2.1602	1.0506	0.0066	1.1732	40.8910
12229375000.0000	11.7140	2.1039	1.0487	0.0171	1.2076	42.6538
12232000000.0000	11.7309	2.1886	1.0549	0.0164	1.2235	40.0085
12234625000.0000	11.6896	2.1736	1.0543	0.0149	1.2123	40.5018
12237250000.0000	11.6480	2.2001	1.0546	0.0091	1.1926	39.6846
12239875000.0000	11.7006	2.1596	1.0571	0.0122	1.2237	39.6443
12242500000.0000	11.6915	2.1340	1.0532	0.0138	1.2155	40.8766
12245125000.0000	11.6754	2.1553	1.0543	0.0138	1.2144	40.5178
12247750000.0000	11.6895	2.1289	1.0536	0.0089	1.2109	40.0923
12250375000.0000	11.6507	2.1763	1.0551	0.0040	1.1946	38.9022
12253000000.0000	11.6897	2.1660	1.0616	0.0044	1.2278	37.5903
12255625000.0000	11.6399	2.1272	1.0509	0.0136	1.2030	41.5541
12258250000.0000	11.6735	2.1916	1.0659	0.0142	1.2566	37.8827
12260875000.0000	11.6472	2.1506	1.0537	0.0051	1.1989	39.3905
12263500000.0000	11.6757	2.1449	1.0562	0.0055	1.2159	38.7469
12266125000.0000	11.6545	2.1178	1.0537	0.0135	1.2216	40.7976
12268750000.0000	11.6249	2.0966	1.0402	0.0197	1.1832	44.4359
12271375000.0000	11.6035	2.1366	1.0518	0.0113	1.2005	40.9204
12274000000.0000	11.6769	2.1107	1.0522	0.0157	1.2302	41.0146
12276625000.0000	11.6705	2.1445	1.0669	0.0117	1.2703	37.6086
12279250000.0000	11.6964	2.1050	1.0581	0.0205	1.2681	40.5469
12281875000.0000	11.6524	2.0697	1.0588	0.0250	1.2739	42.1694
12284500000.0000	11.6790	2.0701	1.0482	0.0160	1.2272	42.0405
12287125000.0000	11.5850	2.1205	1.0449	0.0074	1.1765	41.4697
12289750000.0000	11.5975	2.1178	1.0573	0.0103	1.2268	39.8027
12292375000.0000	11.6739	2.0634	1.0531	0.0206	1.2565	41.9518
12295000000.0000	11.6712	2.0742	1.0514	0.0185	1.2461	41.6635
12297625000.0000	11.6580	2.1116	1.0541	0.0252	1.2618	41.7462
12300250000.0000	11.6434	2.0875	1.0569	0.0201	1.2632	40.9797
12302875000.0000	11.6394	2.0319	1.0428	0.0167	1.2135	43.5815
12305500000.0000	11.6724	2.0879	1.0532	0.0235	1.2660	41.6522
12308125000.0000	11.5903	2.0404	1.0479	0.0145	1.2179	42.6992
12310750000.0000	11.5689	2.0090	1.0479	0.0127	1.2151	43.0911
12313375000.0000	11.6317	2.0839	1.0533	0.0194	1.2533	41.2835
12316000000.0000	11.5668	2.1443	1.0639	0.0179	1.2666	39.0720
12318625000.0000	11.6153	2.0633	1.0532	0.0191	1.2536	41.6416
12321250000.0000	11.5577	2.0936	1.0585	0.0152	1.2491	40.3031
12323875000.0000	11.5800	2.0781	1.0617	0.0193	1.2770	40.3261
12326500000.0000	11.6286	2.0993	1.0575	0.0206	1.2752	40.2400
12329125000.0000	11.5868	2.0492	1.0556	0.0096	1.2450	40.0750
12331750000.0000	11.5907	2.0955	1.0562	0.0160	1.2557	40.0783
12334375000.0000	11.6024	2.0898	1.0529	0.0224	1.2607	41.4860
12337000000.0000	11.6030	2.0854	1.0663	0.0095	1.2866	37.4261
12339625000.0000	11.5648	2.1151	1.0607	0.0222	1.2790	40.0791
12342250000.0000	11.6013	2.0929	1.0600	0.0153	1.2762	39.0127
12344875000.0000	11.5945	2.1362	1.0684	0.0008	1.2709	35.1373
12347500000.0000	11.6059	2.0674	1.0735	0.0141	1.3323	36.8574
12350125000.0000	11.5613	2.0868	1.0563	0.0077	1.2440	38.8708
12352750000.0000	11.5458	2.0897	1.0680	0.0115	1.2899	37.6146
12355375000.0000	11.6059	2.0416	1.0579	0.0192	1.2911	40.3846
12358000000.0000	11.5541	2.0590	1.0482	0.0172	1.2382	41.8625
12360625000.0000	11.5626	2.0524	1.0580	0.0124	1.2686	39.5006
12363250000.0000	11.5760	2.1255	1.0738	0.0151	1.3274	35.9786
12365875000.0000	11.5425	2.0999	1.0591	0.0163	1.2722	39.2281
12368500000.0000	11.5753	2.1507	1.0753	0.0218	1.3473	36.1248
12371125000.0000	11.5109	2.0973	1.0667	0.0105	1.2833	37.4745
12373750000.0000	11.5633	2.0228	1.0619	0.0175	1.3044	39.7609
12376375000.0000	11.5539	1.9987	1.0534	0.0100	1.2607	40.4018
12379000000.0000	11.5853	2.0701	1.0687	0.0194	1.3368	37.7570
12381625000.0000	11.5622	2.0589	1.0632	0.0164	1.3062	38.5850
12384250000.0000	11.6063	2.0425	1.0606	0.0223	1.3237	39.6194
12386875000.0000	11.5314	2.0910	1.0645	0.0094	1.2871	37.1017
12389500000.0000	11.5602	2.0773	1.0663	0.0173	1.3213	37.7263
12392125000.0000	11.5252	2.0309	1.0610	0.0135	1.2920	39.1008
12394750000.0000	11.5606	2.1096	1.0667	0.0177	1.3221	37.0433
12397375000.0000	11.5741	2.0469	1.0633	0.0196	1.3268	38.6842
12400000000.0000	11.5687	2.0386	1.0632	0.0167	1.3216	38.3728
